NW1 Channel 1 Rise @ 5V (EXP51)	
Time (s)	Current (mA)
0.025	48.265
0.054	48.427
0.085	48.572
0.115	48.627
0.145	48.679
0.175	48.771
0.205	48.889
0.236	49.012
0.266	49.055
0.296	49.143
0.326	49.157
0.356	49.181
0.387	49.200
0.417	49.236
0.447	49.256
0.477	49.259
0.507	49.292
0.537	49.329
0.568	49.338
0.598	49.362
0.628	49.381
0.658	49.399
0.688	49.427
0.719	49.441
0.749	49.456
0.779	49.480
0.809	49.485
0.839	49.489
0.870	49.493
0.900	49.507
0.930	49.503
0.960	49.514
0.990	49.523
1.021	49.535
1.051	49.541
1.081	49.550
1.111	49.561
1.141	49.558
1.172	49.563
1.202	49.572
1.232	49.589
1.262	49.599
1.292	49.605
1.322	49.603
1.353	49.619
1.383	49.622
1.413	49.632
1.443	49.642
1.473	49.639
1.504	49.642
1.534	49.653
1.564	49.660
1.594	49.676
1.624	49.690
1.655	49.688
1.685	49.694
1.715	49.696
1.745	49.694
1.775	49.699
1.806	49.701
1.836	49.706
1.866	49.711
1.896	49.718
1.926	49.730
1.957	49.744
1.987	49.757
2.017	49.759
2.047	49.768
2.077	49.775
2.107	49.780
2.138	49.781
2.168	49.778
2.198	49.787
2.228	49.793
2.258	49.792
2.289	49.799
2.319	49.803
2.349	49.808
2.379	49.813
2.409	49.820
2.440	49.832
2.470	49.841
2.500	49.841
2.530	49.854
2.560	49.875
2.591	49.883
2.621	49.884
2.651	49.885
2.681	49.895
2.711	49.905
2.741	49.918
2.772	49.930
2.802	49.928
2.832	49.935
2.862	49.959
2.892	49.962
2.923	49.964
2.953	49.969
2.983	49.973
3.013	49.985
3.043	49.988
3.074	49.997
3.104	50.008
3.134	50.010
3.164	50.011
3.194	50.008
3.224	50.009
3.255	50.015
3.285	50.018
3.315	50.039
3.345	50.048
3.375	50.052
3.406	50.066
3.436	50.068
3.466	50.067
3.496	50.068
3.526	50.073
3.557	50.070
3.587	50.069
3.617	50.071
3.647	50.084
3.677	50.085
3.708	50.085
3.738	50.088
3.768	50.088
3.798	50.089
3.828	50.081
3.859	50.068
3.889	50.065
3.919	50.063
3.949	50.065
3.979	50.076
4.010	50.077
4.040	50.076
4.070	50.081
4.100	50.080
4.130	50.074
4.161	50.077
4.191	50.083
4.221	50.086
4.251	50.091
4.281	50.095
4.312	50.105
4.342	50.114
4.372	50.119
4.402	50.120
4.432	50.121
4.463	50.121
4.493	50.132
4.523	50.136
4.553	50.136
4.583	50.135
4.613	50.130
4.644	50.133
4.674	50.121
4.704	50.055
4.734	50.044
4.764	50.054
4.795	50.062
4.825	50.077
4.855	50.082
4.885	50.086
4.915	50.089
4.946	50.091
4.976	50.094
5.006	50.098
5.036	50.099
5.066	50.103
5.097	50.106
5.127	50.110
5.157	50.115
5.187	50.115
5.217	50.122
5.248	50.124
5.278	50.132
5.308	50.136
5.338	50.139
5.368	50.144
5.399	50.145
5.429	50.151
5.459	50.155
5.489	50.156
5.519	50.156
5.549	50.160
5.580	50.163
5.610	50.162
5.640	50.165
5.670	50.165
5.700	50.164
5.731	50.168
5.761	50.169
5.791	50.167
5.821	50.168
5.851	50.165
5.882	50.168
5.912	50.170
5.942	50.175
5.972	50.174
6.002	50.175
6.032	50.175
6.063	50.173
6.093	50.173
6.123	50.183
6.153	50.188
6.183	50.188
6.214	50.189
6.244	50.190
6.274	50.197
6.304	50.196
6.334	50.199
6.365	50.201
6.395	50.202
6.425	50.203
6.455	50.209
6.485	50.214
6.516	50.217
6.546	50.219
6.576	50.221
6.606	50.222
6.636	50.224
6.666	50.230
6.697	50.233
6.727	50.232
6.757	50.232
6.787	50.231
6.817	50.230
6.848	50.230
6.878	50.230
6.908	50.236
6.938	50.238
6.968	50.242
6.999	50.247
7.029	50.247
7.059	50.246
7.089	50.244
7.119	50.243
7.150	50.243
7.180	50.242
7.210	50.245
7.240	50.245
7.270	50.248
7.300	50.247
7.331	50.250
7.361	50.253
7.391	50.251
7.421	50.250
7.451	50.257
7.482	50.265
7.512	50.271
7.542	50.277
7.572	50.279
7.602	50.278
7.633	50.277
7.663	50.277
7.693	50.278
7.723	50.277
7.753	50.277
7.784	50.276
7.814	50.276
7.844	50.283
7.874	50.284
7.904	50.283
7.935	50.282
7.965	50.281
7.995	50.280
8.025	50.279
8.055	50.278
8.086	50.276
8.116	50.275
8.146	50.275
8.176	50.280
8.206	50.279
8.237	50.277
8.267	50.277
8.297	50.276
8.327	50.278
8.357	50.278
8.388	50.282
8.418	50.283
8.448	50.282
8.478	50.281
8.508	50.279
8.539	50.278
8.569	50.277
8.599	50.277
8.629	50.276
8.659	50.276
8.690	50.278
8.720	50.281
8.750	50.281
8.780	50.280
8.810	50.282
8.841	50.282
8.871	50.287
8.901	50.287
8.931	50.287
8.961	50.293
8.992	50.296
9.022	50.298
9.052	50.302
9.082	50.305
9.112	50.312
9.143	50.314
9.173	50.313
9.203	50.311
9.233	50.311
9.263	50.310
9.293	50.310
9.324	50.307
9.354	50.309
9.384	50.308
9.414	50.308
9.444	50.315
9.475	50.316
9.505	50.315
9.535	50.316
9.565	50.315
9.595	50.314
9.626	50.314
9.656	50.313
9.686	50.313
9.716	50.313
9.746	50.321
9.777	50.328
9.807	50.330
9.837	50.330
9.867	50.329
9.897	50.329
9.928	50.329
9.958	50.330
9.988	50.331
10.018	50.331
10.048	50.331
10.078	50.331
10.109	50.334
10.139	50.336
10.169	50.337
10.199	50.339
10.229	50.340
10.260	50.346
10.290	50.348
10.320	50.350
10.350	50.353
10.380	50.357
10.411	50.359
10.441	50.359
10.471	50.358
10.501	50.359
10.531	50.360
10.561	50.361
10.592	50.366
10.622	50.366
10.652	50.365
10.682	50.364
10.712	50.363
10.743	50.362
10.773	50.362
10.803	50.368
10.833	50.374
10.863	50.380
10.894	50.385
10.924	50.387
10.954	50.389
10.984	50.389
11.014	50.388
11.044	50.390
11.075	50.390
11.105	50.395
11.135	50.395
11.165	50.396
11.195	50.395
11.226	50.394
11.256	50.394
11.286	50.406
11.316	50.412
11.346	50.412
11.377	50.411
11.407	50.413
11.437	50.419
11.467	50.421
11.497	50.423
11.528	50.423
11.558	50.425
11.588	50.425
11.618	50.425
11.648	50.425
11.679	50.424
11.709	50.424
11.739	50.425
11.769	50.424
11.799	50.426
11.829	50.426
11.860	50.424
11.890	50.425
11.920	50.427
11.950	50.429
11.980	50.431
12.011	50.432
12.041	50.431
12.071	50.430
12.101	50.429
12.131	50.429
12.162	50.429
12.192	50.436
12.222	50.439
12.252	50.438
12.282	50.438
12.312	50.437
12.343	50.437
12.373	50.439
12.403	50.438
12.433	50.440
12.463	50.440
12.494	50.440
12.524	50.440
12.554	50.441
12.584	50.443
12.614	50.442
12.645	50.440
12.675	50.445
12.705	50.445
12.735	50.450
12.765	50.454
12.795	50.461
12.826	50.461
12.856	50.462
12.886	50.465
12.916	50.468
12.947	50.474
12.977	50.478
13.007	50.483
13.037	50.488
13.067	50.489
13.098	50.489
13.128	50.491
13.158	50.491
13.188	50.492
13.218	50.493
13.248	50.494
13.279	50.498
13.309	50.502
13.339	50.502
13.369	50.505
13.400	50.505
13.430	50.505
13.460	50.505
13.490	50.504
13.520	50.504
13.551	50.503
13.581	50.503
13.611	50.502
13.641	50.502
13.671	50.502
13.702	50.502
13.732	50.500
13.762	50.505
13.792	50.510
13.822	50.517
13.852	50.520
13.883	50.520
13.913	50.523
13.943	50.524
13.973	50.526
14.003	50.526
14.034	50.528
14.064	50.529
14.094	50.528
14.124	50.529
14.154	50.532
14.185	50.533
14.215	50.536
14.245	50.537
14.275	50.538
14.305	50.542
14.335	50.541
14.366	50.563
14.396	50.566
14.426	50.575
14.456	50.577
14.486	50.580
14.517	50.579
14.547	50.580
14.577	50.579
14.607	50.580
14.637	50.580
14.668	50.580
14.698	50.581
14.728	50.581
14.758	50.581
14.788	50.581
14.819	50.580
14.849	50.581
14.879	50.583
14.909	50.583
14.939	50.583
14.969	50.583
15.000	50.584
15.030	50.584
15.060	50.583
15.090	50.588
15.120	50.588
15.151	50.589
15.181	50.590
15.211	50.592
15.241	50.599
15.271	50.601
15.302	50.605
15.332	50.605
15.362	50.605
15.392	50.607
15.422	50.616
15.452	50.616
15.483	50.616
15.513	50.616
15.543	50.618
15.573	50.623
15.603	50.625
15.634	50.625
15.664	50.624
15.694	50.626
15.724	50.627
15.754	50.636
15.785	50.636
15.815	50.637
15.845	50.636
15.875	50.635
15.905	50.635
15.935	50.636
15.966	50.642
15.996	50.642
16.026	50.643
16.056	50.645
16.086	50.645
16.117	50.646
16.147	50.650
16.177	50.651
16.207	50.651
16.237	50.651
16.268	50.654
16.298	50.655
16.328	50.656
16.358	50.656
16.388	50.657
16.419	50.657
16.449	50.658
16.479	50.659
16.509	50.659
16.539	50.668
16.570	50.669
16.600	50.671
16.630	50.671
16.660	50.670
16.690	50.670
16.721	50.671
16.751	50.670
16.781	50.670
16.811	50.670
16.841	50.671
16.872	50.678
16.902	50.679
16.932	50.679
16.962	50.682
16.992	50.684
17.023	50.684
17.053	50.684
17.083	50.683
17.113	50.685
17.143	50.688
17.174	50.689
17.204	50.691
17.234	50.691
17.264	50.690
17.294	50.691
17.325	50.691
17.355	50.691
17.385	50.692
17.415	50.694
17.445	50.695
17.476	50.697
17.506	50.696
17.536	50.699
17.566	50.699
17.596	50.700
17.627	50.702
17.657	50.702
17.687	50.715
17.717	50.720
17.747	50.720
17.778	50.725
17.808	50.725
17.838	50.724
17.868	50.724
17.898	50.723
17.928	50.724
17.959	50.724
17.989	50.725
18.019	50.725
18.049	50.728
18.079	50.727
18.110	50.728
18.140	50.729
18.170	50.732
18.200	50.732
18.230	50.733
18.261	50.732
18.291	50.733
18.321	50.733
18.351	50.733
18.381	50.734
18.412	50.734
18.442	50.734
18.472	50.734
18.502	50.734
18.532	50.735
18.563	50.736
18.593	50.738
18.623	50.738
18.653	50.739
18.683	50.739
18.713	50.740
18.744	50.743
18.774	50.744
18.804	50.744
18.834	50.745
18.864	50.748
18.895	50.749
18.925	50.751
18.955	50.751
18.985	50.750
19.015	50.751
19.046	50.752
19.076	50.752
19.106	50.752
19.136	50.753
19.166	50.755
19.196	50.755
19.227	50.755
19.257	50.755
19.287	50.755
19.317	50.756
19.347	50.756
19.378	50.756
19.408	50.758
19.438	50.759
19.468	50.762
19.498	50.762
19.529	50.762
19.559	50.761
19.589	50.761
19.619	50.761
19.649	50.762
19.679	50.762
19.710	50.766
19.740	50.766
19.770	50.768
19.800	50.768
19.830	50.767
19.861	50.769
19.891	50.769
19.921	50.770
19.951	50.773
19.981	50.773
20.012	50.777
20.042	50.777
20.072	50.777
20.102	50.777
20.132	50.778
20.162	50.779
20.193	50.784
20.223	50.784
20.253	50.783
20.283	50.783
20.314	50.783
20.344	50.782
20.374	50.783
20.404	50.783
20.434	50.784
20.464	50.785
20.495	50.785
20.525	50.785
20.555	50.786
20.585	50.786
20.615	50.786
20.646	50.787
20.676	50.787
20.706	50.787
20.736	50.788
20.766	50.789
20.797	50.788
20.827	50.788
20.857	50.788
20.887	50.788
20.917	50.790
20.947	50.791
20.978	50.791
21.008	50.791
21.038	50.797
21.068	50.866
21.098	50.870
21.129	50.870
21.159	50.871
21.189	50.873
21.219	50.874
21.249	50.873
21.280	50.873
21.310	50.875
21.340	50.878
21.370	50.879
21.400	50.881
21.431	50.883
21.461	50.883
21.491	50.883
21.521	50.881
21.551	50.882
21.582	50.882
21.612	50.889
21.642	50.890
21.672	50.890
21.702	50.890
21.733	50.891
21.763	50.892
21.793	50.891
21.823	50.892
21.853	50.892
21.884	50.891
21.914	50.891
21.944	50.892
21.974	50.891
22.004	50.891
22.035	50.890
22.065	50.890
22.095	50.892
22.125	50.893
22.155	50.893
22.186	50.895
22.216	50.895
22.246	50.896
22.276	50.897
22.306	50.897
22.337	50.897
22.367	50.897
22.397	50.897
22.427	50.897
22.457	50.897
22.488	50.897
22.518	50.897
22.548	50.897
22.578	50.897
22.608	50.897
22.639	50.897
22.669	50.897
22.699	50.902
22.729	50.904
22.760	50.905
22.790	50.905
22.820	50.905
22.850	50.905
22.880	50.905
22.910	50.905
22.941	50.906
22.971	50.907
23.001	50.907
23.031	50.908
23.061	50.908
23.092	50.908
23.122	50.908
23.152	50.908
23.182	50.908
23.212	50.908
23.243	50.911
23.273	50.911
23.303	50.911
23.333	50.911
23.363	50.911
23.393	50.911
23.424	50.911
23.454	50.910
23.484	50.910
23.514	50.910
23.544	50.909
23.575	50.910
23.605	50.911
23.635	50.910
23.665	50.911
23.695	50.910
23.726	50.911
23.756	50.914
23.786	50.914
23.816	50.914
23.846	50.914
23.876	50.914
23.907	50.914
23.937	50.916
23.967	50.918
23.997	50.918
24.027	50.919
24.058	50.920
24.088	50.921
24.118	50.921
24.148	50.922
24.178	50.923
24.209	50.922
24.239	50.922
24.269	50.922
24.299	50.923
24.329	50.924
24.360	50.924
24.390	50.928
24.420	50.928
24.450	50.927
24.480	50.927
24.510	50.927
24.541	50.927
24.571	50.927
24.601	50.926
24.631	50.926
24.661	50.926
24.692	50.926
24.722	50.926
24.752	50.926
24.782	50.926
24.812	50.925
24.843	50.926
24.873	50.925
24.903	50.927
24.933	50.927
24.963	50.927
24.993	50.929
25.024	50.930
25.054	50.930
25.084	50.930
25.114	50.930
25.144	50.931
25.175	50.933
25.205	50.933
25.235	50.933
25.265	50.937
25.295	50.938
25.326	50.938
25.356	50.940
25.386	50.943
25.416	50.943
25.446	50.943
25.476	50.943
25.507	50.942
25.537	50.942
25.567	50.942
25.597	50.942
25.627	50.941
25.658	50.943
25.688	50.944
25.718	50.944
25.748	50.944
25.778	50.943
25.809	50.943
25.839	50.943
25.869	50.940
25.899	50.941
25.929	50.940
25.959	50.940
25.990	50.940
26.020	50.941
26.050	50.941
26.080	50.941
26.110	50.943
26.141	50.943
26.171	50.944
26.201	50.944
26.231	50.945
26.261	50.945
26.292	50.946
26.322	50.946
26.352	50.946
26.382	50.946
26.412	50.946
26.443	50.947
26.473	50.947
26.503	50.947
26.533	50.949
26.563	50.949
26.593	50.948
26.624	50.951
26.654	50.952
26.684	50.954
26.714	50.956
26.744	50.956
26.775	50.957
26.805	50.960
26.835	50.960
26.865	50.960
26.895	50.960
26.926	50.961
26.956	50.960
26.986	50.961
27.016	50.961
27.046	50.961
27.077	50.961
27.107	50.961
27.137	50.958
27.167	50.959
27.197	50.977
27.228	50.980
27.258	50.982
27.288	50.982
27.318	50.983
27.348	50.985
27.378	50.988
27.409	50.988
27.439	50.990
27.469	50.991
27.499	50.992
27.529	50.992
27.560	50.993
27.590	50.992
27.620	50.992
27.650	50.992
27.680	50.992
27.711	50.992
27.741	50.991
27.771	50.992
27.801	50.991
27.831	50.991
27.861	50.991
27.892	50.993
27.922	50.995
27.952	50.995
27.982	50.995
28.012	50.995
28.043	50.994
28.073	50.995
28.103	50.995
28.133	50.995
28.163	50.995
28.194	50.995
28.224	50.995
28.254	50.995
28.284	50.999
28.314	50.999
28.345	50.999
28.375	51.001
28.405	51.002
28.435	51.002
28.465	51.001
28.495	51.007
28.526	51.007
28.556	51.009
28.586	51.011
28.616	51.011
28.646	51.012
28.677	51.017
28.707	51.018
28.737	51.019
28.767	51.019
28.797	51.019
28.828	51.022
28.858	51.023
28.888	51.023
28.918	51.024
28.948	51.024
28.978	51.024
29.009	51.024
29.039	51.026
29.069	51.026
29.099	51.026
29.129	51.028
29.160	51.028
29.190	51.028
29.220	51.028
29.250	51.028
29.280	51.031
29.311	51.037
29.341	51.038
29.371	51.038
29.401	51.039
29.431	51.039
29.461	51.039
29.492	51.038
29.522	51.038
29.552	51.039
29.582	51.041
29.612	51.047
29.643	51.052
29.673	51.052
29.703	51.052
29.733	51.051
29.763	51.051
29.794	51.051
29.824	51.051
29.854	51.051
29.884	51.051
29.914	51.051
29.945	51.052
29.975	51.059
30.005	51.059
30.035	51.060
30.065	51.059
30.096	51.061
30.126	51.062
30.156	51.062
30.186	51.062
30.216	51.063
30.247	51.064
30.277	51.063
30.307	51.063
30.337	51.064
30.367	51.063
30.398	51.063
30.428	51.065
30.458	51.067
30.488	51.069
30.518	51.069
30.549	51.069
30.579	51.068
30.609	51.068
30.639	51.068
30.669	51.069
30.700	51.069
30.730	51.069
30.760	51.070
30.790	51.070
30.820	51.069
30.851	51.069
30.881	51.070
30.911	51.070
30.941	51.070
30.971	51.070
31.002	51.070
31.032	51.070
31.062	51.070
31.092	51.070
31.122	51.070
31.153	51.069
31.183	51.069
31.213	51.070
31.243	51.070
31.273	51.070
31.304	51.069
31.334	51.069
31.364	51.070
31.394	51.070
31.424	51.070
31.455	51.072
31.485	51.075
31.515	51.084
31.545	51.084
31.575	51.085
31.606	51.086
31.636	51.086
31.666	51.087
31.696	51.088
31.726	51.089
31.757	51.090
31.787	51.091
31.817	51.094
31.847	51.096
31.877	51.098
31.908	51.101
31.938	51.102
31.968	51.101
31.998	51.101
32.028	51.103
32.059	51.103
32.089	51.103
32.119	51.103
32.149	51.103
32.179	51.103
32.210	51.109
32.240	51.109
32.270	51.109
32.300	51.109
32.330	51.109
32.360	51.109
32.391	51.109
32.421	51.108
32.451	51.108
32.481	51.108
32.511	51.108
32.542	51.107
32.572	51.107
32.602	51.106
32.632	51.109
32.662	51.111
32.693	51.111
32.723	51.111
32.753	51.111
32.783	51.111
32.813	51.111
32.843	51.110
32.874	51.110
32.904	51.110
32.934	51.113
32.964	51.113
32.994	51.115
33.025	51.117
33.055	51.117
33.085	51.118
33.115	51.118
33.145	51.118
33.176	51.117
33.206	51.118
33.236	51.120
33.266	51.120
33.296	51.120
33.326	51.120
33.357	51.124
33.387	51.128
33.417	51.130
33.447	51.132
33.477	51.134
33.508	51.135
33.538	51.135
33.568	51.135
33.598	51.136
33.628	51.136
33.658	51.139
33.689	51.140
33.719	51.140
33.749	51.140
33.779	51.141
33.809	51.141
33.840	51.140
33.870	51.147
33.900	51.148
33.930	51.151
33.960	51.153
33.991	51.154
34.021	51.154
34.051	51.156
34.081	51.155
34.111	51.155
34.141	51.156
34.172	51.155
34.202	51.156
34.232	51.156
34.262	51.157
34.292	51.159
34.323	51.159
34.353	51.158
34.383	51.160
34.413	51.165
34.443	51.166
34.474	51.171
34.504	51.172
34.534	51.175
34.564	51.176
34.594	51.177
34.625	51.179
34.655	51.178
34.685	51.180
34.715	51.180
34.745	51.180
34.775	51.180
34.806	51.180
34.836	51.180
34.866	51.179
34.896	51.179
34.926	51.180
34.957	51.180
34.987	51.180
35.017	51.180
35.047	51.180
35.077	51.180
35.108	51.180
35.138	51.180
35.168	51.182
35.198	51.181
35.228	51.183
35.258	51.183
35.289	51.183
35.319	51.183
35.349	51.184
35.379	51.186
35.409	51.187
35.440	51.189
35.470	51.189
35.500	51.189
35.530	51.192
35.560	51.195
35.591	51.196
35.621	51.198
35.651	51.199
35.681	51.199
35.711	51.200
35.741	51.202
35.772	51.203
35.802	51.208
35.832	51.209
35.862	51.208
35.892	51.208
35.923	51.209
35.953	51.209
35.983	51.208
36.013	51.208
36.043	51.209
36.074	51.209
36.104	51.210
36.134	51.210
36.164	51.213
36.194	51.215
36.224	51.215
36.255	51.215
36.285	51.216
36.315	51.216
36.345	51.216
36.375	51.216
36.406	51.216
36.436	51.217
36.466	51.217
36.496	51.218
36.526	51.219
36.557	51.220
36.587	51.221
36.617	51.221
36.647	51.221
36.677	51.221
36.707	51.222
36.738	51.223
36.768	51.223
36.798	51.222
36.828	51.222
36.858	51.224
36.889	51.225
36.919	51.225
36.949	51.225
36.979	51.225
37.009	51.224
37.040	51.224
37.070	51.224
37.100	51.224
37.130	51.224
37.160	51.224
37.191	51.224
37.221	51.225
37.251	51.225
37.281	51.226
37.311	51.226
37.342	51.225
37.372	51.227
37.402	51.228
37.432	51.229
37.462	51.234
37.492	51.237
37.523	51.241
37.553	51.241
37.583	51.241
37.613	51.242
37.643	51.242
37.674	51.242
37.704	51.243
37.734	51.243
37.764	51.242
37.794	51.244
37.825	51.246
37.855	51.251
37.885	51.253
37.915	51.257
37.945	51.260
37.976	51.260
38.006	51.261
38.036	51.261
38.066	51.261
38.096	51.262
38.127	51.262
38.157	51.263
38.187	51.263
38.217	51.263
38.247	51.269
38.278	51.270
38.308	51.270
38.338	51.271
38.368	51.271
38.398	51.271
38.429	51.272
38.459	51.271
38.489	51.273
38.519	51.274
38.549	51.275
38.580	51.276
38.610	51.279
38.640	51.278
38.670	51.279
38.700	51.279
38.731	51.281
38.761	51.281
38.791	51.281
38.821	51.281
38.851	51.281
38.882	51.281
38.912	51.281
38.942	51.281
38.972	51.281
39.002	51.281
39.033	51.281
39.063	51.281
39.093	51.281
39.123	51.281
39.153	51.282
39.184	51.282
39.214	51.282
39.244	51.281
39.274	51.281
39.304	51.281
39.335	51.284
39.365	51.285
39.395	51.290
39.425	51.290
39.455	51.289
39.486	51.289
39.516	51.288
39.546	51.290
39.576	51.293
39.606	51.293
39.637	51.293
39.667	51.294
39.697	51.295
39.727	51.295
39.757	51.295
39.788	51.295
39.818	51.295
39.848	51.295
39.878	51.295
39.908	51.294
39.938	51.296
39.969	51.297
39.999	51.298
40.029	51.298
40.059	51.299
40.089	51.298
40.120	51.299
40.150	51.299
40.180	51.299
40.210	51.303
40.240	51.304
40.271	51.304
40.301	51.303
40.331	51.304
40.361	51.304
40.391	51.304
40.421	51.304
40.452	51.305
40.482	51.304
40.512	51.304
40.542	51.304
40.572	51.303
40.603	51.304
40.633	51.304
40.663	51.305
40.693	51.305
40.723	51.305
40.754	51.305
40.784	51.306
40.814	51.306
40.844	51.307
40.874	51.307
40.904	51.307
40.935	51.306
40.965	51.306
40.995	51.306
41.025	51.307
41.055	51.309
41.086	51.310
41.116	51.314
41.146	51.316
41.176	51.317
41.206	51.317
41.237	51.317
41.267	51.317
41.297	51.317
41.327	51.316
41.357	51.318
41.387	51.320
41.418	51.320
41.448	51.320
41.478	51.320
41.508	51.319
41.538	51.319
41.569	51.320
41.599	51.320
41.629	51.326
41.659	51.328
41.689	51.328
41.720	51.328
41.750	51.328
41.780	51.328
41.810	51.328
41.840	51.328
41.870	51.328
41.901	51.328
41.931	51.328
41.961	51.328
41.991	51.330
42.021	51.331
42.052	51.331
42.082	51.331
42.112	51.329
42.142	51.330
42.172	51.331
42.203	51.332
42.233	51.336
42.263	51.336
42.293	51.337
42.323	51.337
42.354	51.340
42.384	51.340
42.414	51.343
42.444	51.357
42.474	51.359
42.505	51.362
42.535	51.363
42.565	51.364
42.595	51.366
42.625	51.366
42.655	51.367
42.686	51.368
42.716	51.371
42.746	51.372
42.776	51.372
42.806	51.373
42.837	51.375
42.867	51.375
42.897	51.375
42.927	51.376
42.957	51.375
42.987	51.376
43.018	51.376
43.048	51.376
43.078	51.376
43.108	51.376
43.138	51.376
43.169	51.376
43.199	51.376
43.229	51.376
43.259	51.376
43.289	51.376
43.320	51.376
43.350	51.377
43.380	51.377
43.410	51.376
43.440	51.376
43.470	51.379
43.501	51.379
43.531	51.378
43.561	51.378
43.591	51.379
43.621	51.379
43.652	51.379
43.682	51.379
43.712	51.379
