NW 1 Channel 1 Decay	
Time (h)	Current (uA)
0.017	10.444
0.033	11.228
0.050	11.221
0.067	11.228
0.083	11.215
0.100	11.187
0.116	11.215
0.133	11.244
0.150	11.216
0.166	11.230
0.183	11.244
0.200	11.237
0.216	11.229
0.233	11.210
0.249	11.209
0.266	11.182
0.283	11.216
0.299	11.222
0.316	11.203
0.332	11.177
0.349	11.210
0.366	11.176
0.382	11.204
0.399	11.210
0.416	11.219
0.432	11.220
0.449	11.190
0.465	11.239
0.482	11.219
0.499	11.228
0.515	11.212
0.532	11.177
0.549	11.180
0.565	11.159
0.582	11.185
0.598	11.191
0.615	11.204
0.632	11.179
0.648	11.176
0.665	11.185
0.682	11.206
0.698	11.197
0.715	11.223
0.731	11.196
0.748	11.179
0.765	11.222
0.781	11.200
0.798	11.212
0.814	11.174
0.831	11.131
0.848	11.161
0.864	11.133
0.881	11.177
0.898	11.128
0.914	11.118
0.931	11.107
0.947	11.132
0.964	11.111
0.981	11.150
0.997	11.132
1.014	11.148
1.031	11.153
1.047	11.142
1.064	11.158
1.080	11.098
1.097	11.113
1.114	11.124
1.130	11.131
1.147	11.125
1.164	11.116
1.180	11.105
1.197	11.089
1.213	11.120
1.230	11.123
1.247	11.098
1.263	11.123
1.280	11.114
1.297	11.098
1.313	11.126
1.330	11.092
1.346	11.088
1.363	11.105
1.380	11.094
1.396	11.073
1.413	11.088
1.429	11.073
1.446	11.100
1.463	11.082
1.479	11.068
1.496	11.062
1.513	11.057
1.529	11.085
1.546	11.069
1.562	11.028
1.579	11.076
1.596	11.084
1.612	11.072
1.629	11.043
1.646	11.073
1.662	11.084
1.679	11.074
1.695	11.065
1.712	11.084
1.729	11.052
1.745	11.060
1.762	11.032
1.779	11.059
1.795	11.047
1.812	11.026
1.828	11.070
1.845	11.009
1.862	11.016
1.878	11.064
1.895	11.047
1.912	11.064
1.928	11.068
1.945	11.077
1.961	11.026
1.978	11.048
1.995	11.015
2.011	11.004
2.028	11.045
2.044	11.025
2.061	11.027
2.078	11.067
2.094	11.047
2.111	10.983
2.128	11.010
2.144	11.043
2.161	11.045
2.177	11.024
2.194	10.992
2.211	11.041
2.227	11.023
2.244	11.047
2.261	11.020
2.277	11.019
2.294	11.011
2.310	11.014
2.327	10.974
2.344	11.006
2.360	11.024
2.377	10.988
2.394	10.993
2.410	10.988
2.427	11.011
2.443	11.011
2.460	10.999
2.477	11.007
2.493	11.010
2.510	10.975
2.527	10.964
2.543	10.954
2.560	10.991
2.576	10.976
2.593	10.992
2.610	10.975
2.626	10.973
2.643	10.974
2.659	10.966
2.676	10.983
2.693	10.982
2.709	10.981
2.726	11.001
2.743	10.961
2.759	10.967
2.776	11.014
2.792	11.003
2.809	10.997
2.826	10.979
2.842	10.983
2.859	10.987
2.876	10.961
2.892	10.986
2.909	10.984
2.925	10.971
2.942	10.967
2.959	10.944
2.975	10.966
2.992	10.936
3.009	10.975
3.025	10.937
3.042	10.949
3.058	10.961
3.075	10.966
3.092	10.960
3.108	10.954
3.125	10.966
3.142	10.988
3.158	10.918
3.175	10.950
3.191	10.948
3.208	10.960
3.225	10.969
3.241	10.937
3.258	10.923
3.274	10.934
3.291	10.969
3.308	10.948
3.324	10.940
3.341	10.992
3.358	10.959
3.374	10.932
3.391	10.944
3.407	10.946
3.424	10.952
3.441	10.954
3.457	10.944
3.474	10.914
3.491	10.933
3.507	10.900
3.524	10.937
3.540	10.934
3.557	10.917
3.574	10.946
3.590	10.924
3.607	10.892
3.624	10.874
3.640	10.905
3.657	10.882
3.673	10.897
3.690	10.911
3.707	10.906
3.723	10.903
3.740	10.898
3.757	10.878
3.773	10.926
3.790	10.925
3.806	10.948
3.823	10.971
3.840	10.939
3.856	10.933
3.873	10.950
3.889	10.949
3.906	10.917
3.923	10.930
3.939	10.929
3.956	10.945
3.973	10.938
3.989	10.956
4.006	10.932
4.022	10.909
4.039	10.889
4.056	10.892
4.072	10.921
4.089	10.906
4.106	10.889
4.122	10.885
4.139	10.874
4.155	10.879
4.172	10.859
4.189	10.847
4.205	10.818
4.222	10.845
4.239	10.859
4.255	10.856
4.272	10.885
4.288	10.854
4.305	10.868
4.322	10.879
4.338	10.873
4.355	10.862
4.372	10.880
4.388	10.909
4.405	10.876
4.421	10.898
4.438	10.887
4.455	10.888
4.471	10.894
4.488	10.888
4.504	10.879
4.521	10.862
4.538	10.863
4.554	10.881
4.571	10.880
4.588	10.864
4.604	10.887
4.621	10.887
4.637	10.857
4.654	10.885
4.671	10.911
4.687	10.857
4.704	10.863
4.721	10.858
4.737	10.843
4.754	10.868
4.770	10.867
4.787	10.859
4.804	10.849
4.820	10.853
4.837	10.863
4.854	10.855
4.870	10.863
4.887	10.895
4.903	10.866
4.920	10.841
4.937	10.841
4.953	10.822
4.970	10.829
4.987	10.872
5.003	10.855
5.020	10.814
5.036	10.822
5.053	10.818
5.070	10.818
5.086	10.810
5.103	10.829
5.119	10.850
5.136	10.822
5.153	10.846
5.169	10.807
5.186	10.863
5.203	10.852
5.219	10.852
5.236	10.861
5.252	10.858
5.269	10.841
5.286	10.826
5.302	10.822
5.319	10.839
5.336	10.837
5.352	10.863
5.369	10.857
5.385	10.874
5.402	10.893
5.419	10.832
5.435	10.836
5.452	10.835
5.469	10.862
5.485	10.836
5.502	10.861
5.518	10.844
5.535	10.831
5.552	10.845
5.568	10.857
5.585	10.832
5.602	10.863
5.618	10.874
5.635	10.851
5.651	10.841
5.668	10.828
5.685	10.876
5.701	10.826
5.718	10.838
5.734	10.851
5.751	10.850
5.768	10.861
5.784	10.850
5.801	10.848
5.818	10.858
5.834	10.835
5.851	10.840
5.867	10.850
5.884	10.837
5.901	10.821
5.917	10.812
5.934	10.823
5.951	10.816
5.967	10.833
5.984	10.814
6.000	10.835
6.017	10.817
6.034	10.811
6.050	10.813
6.067	10.796
6.084	10.804
6.100	10.793
6.117	10.814
6.133	10.793
6.150	10.792
6.167	10.821
6.183	10.795
6.200	10.824
6.217	10.825
6.233	10.825
6.250	10.844
6.266	10.793
6.283	10.808
6.300	10.785
6.316	10.822
6.333	10.820
6.349	10.804
6.366	10.837
6.383	10.819
6.399	10.824
6.416	10.813
6.433	10.810
6.449	10.802
6.466	10.786
6.482	10.782
6.499	10.806
6.516	10.810
6.532	10.811
6.549	10.816
6.566	10.794
6.582	10.800
6.599	10.801
6.615	10.791
6.632	10.772
6.649	10.770
6.665	10.776
6.682	10.780
6.699	10.762
6.715	10.772
6.732	10.780
6.748	10.747
6.765	10.765
6.782	10.740
6.798	10.754
6.815	10.751
6.832	10.762
6.848	10.757
6.865	10.740
6.881	10.733
6.898	10.765
6.915	10.781
6.931	10.750
6.948	10.790
6.964	10.801
6.981	10.789
6.998	10.794
7.014	10.779
7.031	10.790
7.048	10.778
7.064	10.789
7.081	10.792
7.097	10.792
7.114	10.764
7.131	10.776
7.147	10.768
7.164	10.772
7.181	10.749
7.197	10.756
7.214	10.770
7.230	10.797
7.247	10.753
7.264	10.761
7.280	10.735
7.297	10.729
7.314	10.753
7.330	10.766
7.347	10.765
7.363	10.715
7.380	10.768
7.397	10.783
7.413	10.747
7.430	10.744
7.447	10.733
7.463	10.735
7.480	10.710
7.496	10.708
7.513	10.741
7.530	10.724
7.546	10.722
7.563	10.698
7.579	10.711
7.596	10.711
7.613	10.706
7.629	10.709
7.646	10.730
7.663	10.718
7.679	10.714
7.696	10.706
7.712	10.700
7.729	10.728
7.746	10.735
7.762	10.717
7.779	10.709
7.796	10.715
7.812	10.742
7.829	10.706
7.845	10.677
7.862	10.701
7.879	10.720
7.895	10.717
7.912	10.721
7.929	10.733
7.945	10.721
7.962	10.746
7.978	10.741
7.995	10.731
8.012	10.745
8.028	10.732
8.045	10.731
8.062	10.718
8.078	10.739
8.095	10.726
8.111	10.719
8.128	10.709
8.145	10.715
8.161	10.683
8.178	10.763
8.194	10.756
8.211	10.737
8.228	10.740
8.244	10.718
8.261	10.708
8.278	10.699
8.294	10.688
8.311	10.685
8.327	10.695
8.344	10.716
8.361	10.683
8.377	10.699
8.394	10.697
8.411	10.684
8.427	10.699
8.444	10.713
8.460	10.700
8.477	10.692
8.494	10.729
8.510	10.706
8.527	10.701
8.544	10.689
8.560	10.671
8.577	10.682
8.593	10.692
8.610	10.691
8.627	10.690
8.643	10.717
8.660	10.690
8.677	10.671
8.693	10.665
8.710	10.657
8.726	10.681
8.743	10.673
8.760	10.684
8.776	10.676
8.793	10.632
8.809	10.673
8.826	10.678
8.843	10.648
8.859	10.701
8.876	10.664
8.893	10.669
8.909	10.696
8.926	10.682
8.942	10.676
8.959	10.669
8.976	10.660
8.992	10.677
9.009	10.662
9.026	10.666
9.042	10.653
9.059	10.625
9.075	10.626
9.092	10.618
9.109	10.649
9.125	10.641
9.142	10.637
9.159	10.641
9.175	10.640
9.192	10.658
9.208	10.669
9.225	10.686
9.242	10.675
9.258	10.676
9.275	10.657
9.292	10.616
9.308	10.659
9.325	10.655
9.341	10.659
9.358	10.686
9.375	10.672
9.391	10.667
9.408	10.630
9.424	10.657
9.441	10.674
9.458	10.662
9.474	10.675
9.491	10.644
9.508	10.620
9.524	10.648
9.541	10.671
9.557	10.665
9.574	10.689
9.591	10.694
9.607	10.681
9.624	10.653
9.641	10.682
9.657	10.677
9.674	10.667
9.690	10.686
9.707	10.662
9.724	10.638
9.740	10.655
9.757	10.689
9.774	10.650
9.790	10.653
9.807	10.681
9.823	10.670
9.840	10.700
9.857	10.673
9.873	10.654
9.890	10.666
9.907	10.659
9.923	10.641
9.940	10.682
9.956	10.670
9.973	10.682
9.990	10.697
10.006	10.642
10.023	10.678
10.039	10.679
10.056	10.657
10.073	10.628
10.089	10.641
10.106	10.630
10.123	10.635
10.139	10.680
10.156	10.683
10.172	10.665
10.189	10.677
10.206	10.630
10.222	10.660
10.239	10.637
10.256	10.623
10.272	10.642
10.289	10.644
10.305	10.668
10.322	10.626
10.339	10.664
10.355	10.641
10.372	10.625
10.389	10.595
10.405	10.627
10.422	10.626
10.438	10.648
10.455	10.630
10.472	10.637
10.488	10.616
10.505	10.639
10.522	10.628
10.538	10.634
10.555	10.606
10.571	10.616
10.588	10.642
10.605	10.637
10.621	10.610
10.638	10.626
10.654	10.585
10.671	10.606
10.688	10.606
10.704	10.618
10.721	10.645
10.738	10.662
10.754	10.619
10.771	10.644
10.787	10.583
10.804	10.602
10.821	10.603
10.837	10.606
10.854	10.610
10.871	10.624
10.887	10.629
10.904	10.635
10.920	10.632
10.937	10.656
10.954	10.663
10.970	10.643
10.987	10.625
11.004	10.604
11.020	10.589
11.037	10.597
11.053	10.611
11.070	10.646
11.087	10.618
11.103	10.611
11.120	10.636
11.137	10.644
11.153	10.639
11.170	10.634
11.186	10.628
11.203	10.624
11.220	10.604
11.236	10.649
11.253	10.648
11.269	10.628
11.286	10.605
11.303	10.606
11.319	10.633
11.336	10.601
11.353	10.620
11.369	10.586
11.386	10.605
11.402	10.572
11.419	10.576
11.436	10.578
11.452	10.598
11.469	10.628
11.486	10.613
11.502	10.591
11.519	10.600
11.535	10.610
11.552	10.605
11.569	10.583
11.585	10.607
11.602	10.606
11.619	10.567
11.635	10.575
11.652	10.613
11.668	10.596
11.685	10.556
11.702	10.533
11.718	10.569
11.735	10.549
11.752	10.581
11.768	10.590
11.785	10.575
11.801	10.576
11.818	10.596
11.835	10.600
11.851	10.601
11.868	10.622
11.884	10.565
11.901	10.532
11.918	10.573
11.934	10.537
11.951	10.571
11.968	10.565
11.984	10.586
12.001	10.589
12.017	10.553
12.034	10.541
12.051	10.564
12.067	10.568
12.084	10.588
12.101	10.560
12.117	10.575
12.134	10.562
12.150	10.584
12.167	10.567
12.184	10.548
12.200	10.515
12.217	10.536
12.234	10.532
12.250	10.563
12.267	10.592
12.283	10.550
12.300	10.544
12.317	10.555
12.333	10.550
12.350	10.570
12.367	10.583
12.383	10.559
12.400	10.562
12.416	10.534
12.433	10.567
12.450	10.590
12.466	10.561
12.483	10.544
12.499	10.543
12.516	10.560
12.533	10.553
12.549	10.538
12.566	10.550
12.583	10.535
12.599	10.563
12.616	10.520
12.632	10.561
12.649	10.550
12.666	10.541
12.682	10.538
12.699	10.532
12.716	10.544
12.732	10.566
12.749	10.554
12.765	10.558
12.782	10.580
12.799	10.550
12.815	10.549
12.832	10.567
12.849	10.557
12.865	10.559
12.882	10.568
12.898	10.539
12.915	10.527
12.932	10.541
12.948	10.555
12.965	10.545
12.982	10.535
12.998	10.519
13.015	10.531
13.031	10.532
13.048	10.559
13.065	10.533
13.081	10.524
13.098	10.513
13.114	10.524
13.131	10.524
13.148	10.495
13.164	10.512
13.181	10.491
13.198	10.512
13.214	10.529
13.231	10.544
13.247	10.509
13.264	10.520
13.281	10.511
13.297	10.513
13.314	10.535
13.331	10.548
13.347	10.545
13.364	10.526
13.380	10.523
13.397	10.511
13.414	10.513
13.430	10.524
13.447	10.462
13.464	10.555
13.480	10.550
13.497	10.511
13.513	10.521
13.530	10.528
13.547	10.574
13.563	10.559
13.580	10.556
13.596	10.548
13.613	10.534
13.630	10.507
13.646	10.541
13.663	10.547
13.680	10.542
13.696	10.529
13.713	10.502
13.729	10.528
13.746	10.503
13.763	10.478
13.779	10.477
13.796	10.482
13.813	10.486
13.829	10.492
13.846	10.470
13.862	10.487
13.879	10.501
13.896	10.464
13.912	10.462
13.929	10.466
13.946	10.479
13.962	10.481
13.979	10.471
13.995	10.455
14.012	10.493
14.029	10.490
14.045	10.477
14.062	10.510
14.079	10.510
14.095	10.499
14.112	10.488
14.128	10.471
14.145	10.496
14.162	10.488
14.178	10.488
14.195	10.473
14.211	10.512
14.228	10.517
14.245	10.497
14.261	10.485
14.278	10.459
14.295	10.466
14.311	10.498
14.328	10.475
14.344	10.490
14.361	10.499
14.378	10.505
14.394	10.483
14.411	10.522
14.428	10.478
14.444	10.485
14.461	10.455
14.477	10.454
14.494	10.455
14.511	10.466
14.527	10.448
14.544	10.460
14.561	10.460
14.577	10.457
14.594	10.461
14.610	10.459
14.627	10.467
14.644	10.469
14.660	10.469
14.677	10.474
14.694	10.464
14.710	10.466
14.727	10.459
14.743	10.459
14.760	10.478
14.777	10.444
14.793	10.460
14.810	10.430
14.826	10.420
14.843	10.436
14.860	10.440
14.876	10.475
14.893	10.462
14.910	10.430
14.926	10.448
14.943	10.449
14.959	10.442
14.976	10.425
14.993	10.452
15.009	10.434
15.026	10.416
15.043	10.428
15.059	10.451
15.076	10.466
15.092	10.480
15.109	10.469
15.126	10.446
15.142	10.468
15.159	10.448
15.176	10.463
15.192	10.449
15.209	10.464
15.225	10.441
15.242	10.443
15.259	10.421
15.275	10.439
15.292	10.450
15.309	10.434
15.325	10.470
15.342	10.414
15.358	10.446
15.375	10.408
15.392	10.420
15.408	10.422
15.425	10.439
15.441	10.438
15.458	10.419
15.475	10.452
15.491	10.422
15.508	10.441
15.525	10.460
15.541	10.469
15.558	10.475
15.574	10.439
15.591	10.475
15.608	10.445
15.624	10.452
15.641	10.445
15.658	10.455
15.674	9.823
15.691	10.410
15.707	10.392
15.724	10.390
15.741	10.433
15.757	10.439
15.774	10.400
15.791	10.446
15.807	10.453
15.824	10.451
15.840	10.457
15.857	10.446
15.874	10.440
15.890	10.449
15.907	10.424
15.924	10.413
15.940	10.411
15.957	10.409
15.973	10.440
15.990	10.410
16.007	10.434
16.023	10.446
16.040	10.399
16.057	10.414
16.073	10.403
16.090	10.415
16.106	10.433
16.123	10.381
16.140	10.399
16.156	10.377
16.173	10.414
16.190	10.391
16.206	10.393
16.223	10.400
16.239	10.405
16.256	10.426
16.273	10.429
16.289	10.429
16.306	10.396
16.322	10.411
16.339	10.413
16.356	10.423
16.372	10.397
16.389	10.433
16.406	10.421
16.422	10.408
16.439	10.411
16.455	10.406
16.472	10.392
16.489	10.422
16.505	10.397
16.522	10.428
16.539	10.401
16.555	10.418
16.572	10.428
16.588	10.390
16.605	10.415
16.622	10.423
16.638	10.396
16.655	10.417
16.672	10.404
16.688	10.409
16.705	10.389
16.721	10.437
16.738	10.416
16.755	10.418
16.771	10.393
16.788	10.414
16.805	10.405
16.821	10.428
16.838	10.404
16.854	10.409
16.871	10.410
16.888	10.394
16.904	10.409
16.921	10.400
16.937	10.393
16.954	10.387
16.971	10.430
16.987	10.401
17.004	10.379
17.021	10.386
17.037	10.377
17.054	10.386
17.070	10.387
17.087	10.404
17.104	10.395
17.120	10.376
17.137	10.386
17.154	10.371
17.170	10.357
17.187	10.375
17.203	10.371
17.220	10.371
17.237	10.390
17.253	10.398
17.270	10.388
17.287	10.366
17.303	10.357
17.320	10.361
17.336	10.382
17.353	10.383
17.370	10.386
17.386	10.368
17.403	10.342
17.420	10.367
17.436	10.373
17.453	10.359
17.469	10.360
17.486	10.400
17.503	10.362
17.519	10.368
17.536	10.406
17.552	10.427
17.569	10.386
17.586	10.374
17.602	10.382
17.619	10.378
17.636	10.372
17.652	10.382
17.669	10.383
17.685	10.383
17.702	10.392
17.719	10.380
17.735	10.385
17.752	10.358
17.769	10.351
17.785	10.310
17.802	10.365
17.818	10.336
17.835	10.364
17.852	10.374
17.868	10.356
17.885	10.359
17.902	10.347
17.918	10.341
17.935	10.335
17.951	10.408
17.968	10.449
17.985	10.477
18.001	10.466
18.018	10.458
18.035	10.458
18.051	10.437
18.068	10.467
18.084	10.477
18.101	10.486
18.118	10.493
18.134	10.483
18.151	10.482
18.167	10.462
18.184	10.485
18.201	10.468
18.217	10.470
18.234	10.461
18.251	10.473
18.267	10.491
18.284	10.468
18.300	10.473
18.317	10.457
18.334	10.461
18.350	10.471
18.367	10.481
18.384	10.435
18.400	10.438
18.417	10.438
18.433	10.451
18.450	10.451
18.467	10.487
18.483	10.476
18.500	10.458
18.517	10.477
18.533	10.457
18.550	10.478
18.566	10.484
18.583	10.493
18.600	10.495
18.616	10.473
18.633	10.496
18.650	10.488
18.666	10.424
18.683	10.453
18.699	10.478
18.716	10.442
18.733	10.462
18.749	10.473
18.766	10.467
18.782	10.482
18.799	10.474
18.816	10.440
18.832	10.461
18.849	10.430
18.866	10.429
18.882	10.442
18.899	10.432
18.915	10.432
18.932	10.424
18.949	10.414
18.965	10.464
18.982	10.436
18.999	10.426
19.015	10.413
19.032	10.425
19.048	10.408
19.065	10.417
19.082	10.419
19.098	10.422
19.115	10.441
19.132	10.442
19.148	10.451
19.165	10.448
19.181	10.449
19.198	10.443
19.215	10.432
19.231	10.448
19.248	10.453
19.265	10.460
19.281	10.448
19.298	10.452
19.314	10.423
19.331	10.462
19.348	10.438
19.364	10.470
19.381	10.454
19.397	10.474
19.414	10.464
19.431	10.434
19.447	10.437
19.464	10.420
19.481	10.431
19.497	10.451
19.514	10.425
19.530	10.446
19.547	10.412
19.564	10.434
19.580	10.455
19.597	10.442
19.614	10.429
19.630	10.423
19.647	10.409
19.663	10.417
19.680	10.435
19.697	10.420
19.713	10.448
19.730	10.430
19.747	10.422
19.763	10.422
19.780	10.418
19.796	10.438
19.813	10.429
19.830	10.424
19.846	10.406
19.863	10.417
19.880	10.423
19.896	10.424
19.913	10.444
19.929	10.414
19.946	10.392
19.963	10.406
19.979	10.404
19.996	10.421
20.012	10.399
20.029	10.401
20.046	10.390
20.062	10.374
20.079	10.376
20.096	10.395
20.112	10.413
20.129	10.395
20.145	10.369
20.162	10.400
20.179	10.408
20.195	10.391
20.212	10.423
20.229	10.432
20.245	10.435
20.262	10.390
20.278	10.416
20.295	10.365
20.312	10.427
20.328	10.419
20.345	10.424
20.362	10.405
20.378	10.407
20.395	10.421
20.411	10.409
20.428	10.413
20.445	10.434
20.461	10.426
20.478	10.414
20.494	10.428
20.511	10.404
20.528	10.417
20.544	10.443
20.561	10.414
20.578	10.428
20.594	10.371
20.611	10.416
20.627	10.430
20.644	10.403
20.661	10.387
20.677	10.400
20.694	10.383
20.711	10.430
20.727	10.392
20.744	10.399
20.760	10.380
20.777	10.357
20.794	10.361
20.810	10.388
20.827	10.392
20.844	10.401
20.860	10.410
20.877	10.411
20.893	10.416
20.910	10.399
20.927	10.410
20.943	10.378
20.960	10.379
20.977	10.414
20.993	10.380
21.010	10.412
21.026	10.406
21.043	10.405
21.060	10.411
21.076	10.384
21.093	10.398
21.109	10.401
21.126	10.378
21.143	10.389
21.159	10.374
21.176	10.379
21.193	10.370
21.209	10.376
21.226	10.363
21.242	10.394
21.259	10.365
21.276	10.378
21.292	10.361
21.309	10.363
21.326	10.378
21.342	10.366
21.359	10.357
21.375	10.323
21.392	10.316
21.409	10.346
21.425	10.372
21.442	10.351
21.459	10.335
21.475	10.334
21.492	10.365
21.508	10.341
21.525	10.361
21.542	10.357
21.558	10.337
21.575	10.346
21.592	10.352
21.608	10.349
21.625	10.370
21.641	10.369
21.658	10.381
21.675	10.363
21.691	10.371
21.708	10.335
21.724	10.344
21.741	10.347
21.758	10.348
21.774	10.393
21.791	10.358
21.808	10.352
21.824	10.348
21.841	10.366
21.857	10.337
21.874	10.344
21.891	10.343
21.907	10.361
21.924	10.352
21.941	10.349
21.957	10.373
21.974	10.360
21.990	10.364
22.007	10.350
22.024	10.345
22.040	10.354
22.057	10.321
22.074	10.326
22.090	10.335
22.107	10.341
22.123	10.354
22.140	10.354
22.157	10.358
22.173	10.361
22.190	10.365
22.207	10.348
22.223	10.338
22.240	10.333
22.256	10.339
22.273	10.329
22.290	10.373
22.306	10.337
22.323	10.369
22.339	10.304
22.356	9.729
22.373	10.356
22.389	10.318
22.406	10.340
22.423	10.317
22.439	10.339
22.456	10.338
22.473	10.340
22.489	10.329
22.506	10.344
22.522	10.340
22.539	10.351
22.556	10.338
22.572	10.352
22.589	10.333
22.605	10.329
22.622	10.339
22.639	10.349
22.655	10.336
22.672	10.300
22.689	10.320
22.705	10.294
22.722	10.320
22.738	10.286
22.755	10.333
22.772	10.361
22.788	10.315
22.805	10.303
22.822	10.310
22.838	10.334
22.855	10.327
22.871	10.303
22.888	10.312
22.905	10.337
22.921	10.288
22.938	10.343
22.955	10.346
22.971	10.354
22.988	10.333
23.004	10.368
23.021	10.371
23.038	10.345
23.054	10.373
23.071	10.367
23.088	10.343
23.104	10.348
23.121	10.340
23.137	10.341
23.154	10.293
23.171	10.320
23.187	10.334
23.204	10.394
23.220	10.333
23.237	10.327
23.254	10.349
23.270	10.327
23.287	10.327
23.304	10.350
23.320	10.345
23.337	10.333
23.353	10.329
23.370	10.337
23.387	10.369
23.403	10.345
23.420	10.319
23.437	10.325
23.453	10.335
23.470	10.303
23.486	10.321
23.503	10.303
23.520	10.311
23.536	10.281
23.553	10.302
23.570	10.297
23.586	10.309
23.603	10.286
23.619	10.310
23.636	10.326
23.653	10.349
23.669	10.311
23.686	10.323
23.703	10.327
23.719	10.352
23.736	10.322
23.752	10.318
23.769	10.306
23.786	10.332
23.802	10.330
23.819	10.317
23.835	10.327
23.852	10.312
23.869	10.323
23.885	10.313
23.902	10.315
23.919	10.312
23.935	10.337
23.952	10.324
23.968	10.345
23.985	10.334
24.002	10.314
24.018	10.321
24.035	10.309
24.052	10.283
24.068	10.298
24.085	10.309
24.101	10.329
24.118	10.318
24.135	10.313
24.151	10.331
24.168	10.332
24.185	10.316
24.201	10.346
24.218	10.303
24.234	10.287
24.251	10.278
24.268	10.297
24.284	10.291
24.301	10.301
24.318	10.343
24.334	10.289
24.351	10.321
24.367	10.331
24.384	10.330
24.401	10.280
