NW1 Channel 9 Decay	
Time (h)	Current (uA)
0.017	11.077
0.033	12.024
0.050	12.042
0.067	12.084
0.083	12.093
0.100	12.064
0.116	12.054
0.133	12.044
0.150	12.053
0.166	12.005
0.183	12.020
0.200	12.040
0.216	12.062
0.233	12.032
0.249	12.067
0.266	12.074
0.283	12.043
0.299	12.058
0.316	12.058
0.332	12.017
0.349	12.054
0.366	12.010
0.382	12.001
0.399	12.013
0.416	12.045
0.432	12.052
0.449	12.035
0.465	12.041
0.482	12.042
0.499	12.042
0.515	12.011
0.532	12.043
0.549	12.021
0.565	11.986
0.582	12.033
0.598	12.075
0.615	12.011
0.632	12.014
0.648	12.022
0.665	12.019
0.682	11.986
0.698	12.034
0.715	12.016
0.731	11.982
0.748	11.990
0.765	11.996
0.781	11.995
0.798	12.015
0.814	11.984
0.831	12.018
0.848	12.013
0.864	12.017
0.881	12.026
0.898	12.036
0.914	12.030
0.931	12.045
0.947	11.995
0.964	12.025
0.981	12.001
0.997	11.978
1.014	11.994
1.031	11.947
1.047	11.950
1.064	12.007
1.080	11.979
1.097	11.987
1.114	12.038
1.130	12.015
1.147	12.026
1.164	12.000
1.180	12.060
1.197	12.037
1.213	12.027
1.230	11.995
1.247	11.976
1.263	11.984
1.280	12.018
1.297	11.992
1.313	11.975
1.330	11.970
1.346	12.011
1.363	12.006
1.380	12.018
1.396	11.984
1.413	11.993
1.429	11.991
1.446	12.008
1.463	11.984
1.479	12.017
1.496	11.987
1.513	11.978
1.529	11.993
1.546	11.998
1.562	11.994
1.579	11.986
1.596	11.986
1.612	11.959
1.629	11.988
1.646	11.980
1.662	11.974
1.679	11.978
1.695	12.008
1.712	11.991
1.729	12.000
1.745	11.973
1.762	11.994
1.779	11.983
1.795	11.971
1.812	11.984
1.828	12.012
1.845	11.980
1.862	11.982
1.878	12.000
1.895	11.999
1.912	11.965
1.928	12.000
1.945	11.966
1.961	11.969
1.978	11.971
1.995	11.981
2.011	11.986
2.028	11.971
2.044	11.973
2.061	11.928
2.078	11.950
2.094	11.934
2.111	11.921
2.128	11.951
2.144	11.987
2.161	11.965
2.177	11.927
2.194	11.928
2.211	11.918
2.227	11.957
2.244	11.950
2.261	11.956
2.277	11.994
2.294	11.984
2.310	11.971
2.327	11.978
2.344	11.951
2.360	11.946
2.377	11.948
2.394	11.932
2.410	11.960
2.427	11.963
2.443	11.994
2.460	11.981
2.477	11.963
2.493	11.934
2.510	11.959
2.527	11.971
2.543	11.962
2.560	11.954
2.576	11.981
2.593	11.954
2.610	11.943
2.626	11.973
2.643	11.929
2.659	11.946
2.676	11.975
2.693	11.943
2.709	11.945
2.726	11.941
2.743	11.942
2.759	11.943
2.776	11.945
2.792	11.978
2.809	11.976
2.826	11.977
2.842	11.951
2.859	11.996
2.876	11.946
2.892	11.937
2.909	11.922
2.925	11.949
2.942	11.972
2.959	11.953
2.975	11.956
2.992	11.914
3.009	11.936
3.025	11.961
3.042	11.965
3.058	11.968
3.075	11.998
3.092	11.982
3.108	11.971
3.125	11.980
3.142	11.941
3.158	11.937
3.175	11.937
3.191	11.917
3.208	11.914
3.225	11.895
3.241	11.898
3.258	11.945
3.274	11.957
3.291	11.948
3.308	11.953
3.324	11.915
3.341	11.956
3.358	11.955
3.374	11.976
3.391	11.975
3.407	11.999
3.424	11.954
3.441	11.949
3.457	11.979
3.474	11.928
3.491	11.958
3.507	11.949
3.524	11.973
3.540	11.976
3.557	11.942
3.574	11.967
3.590	11.942
3.607	11.955
3.624	11.956
3.640	11.938
3.657	11.952
3.673	11.933
3.690	11.927
3.707	11.901
3.723	11.889
3.740	11.923
3.757	11.923
3.773	11.926
3.790	11.946
3.806	11.948
3.823	11.921
3.840	11.913
3.856	11.894
3.873	11.903
3.889	11.915
3.906	11.873
3.923	11.940
3.939	11.892
3.956	11.913
3.973	11.942
3.989	11.932
4.006	11.901
4.022	11.922
4.039	11.934
4.056	11.911
4.072	11.898
4.089	11.927
4.106	11.914
4.122	11.922
4.139	11.905
4.155	11.890
4.172	11.908
4.189	11.935
4.205	11.903
4.222	11.942
4.239	11.946
4.255	11.900
4.272	11.915
4.288	11.899
4.305	11.915
4.322	11.919
4.338	11.897
4.355	11.867
4.372	11.895
4.388	11.898
4.405	11.868
4.421	11.897
4.438	11.876
4.455	11.881
4.471	11.859
4.488	11.898
4.504	11.921
4.521	11.883
4.538	11.886
4.554	11.883
4.571	11.940
4.588	11.905
4.604	11.923
4.621	11.928
4.637	11.911
4.654	11.890
4.671	11.942
4.687	11.946
4.704	11.908
4.721	11.901
4.737	11.925
4.754	11.924
4.770	11.900
4.787	11.920
4.804	11.969
4.820	11.891
4.837	11.877
4.854	11.917
4.870	11.898
4.887	11.900
4.903	11.873
4.920	11.894
4.937	11.913
4.953	11.893
4.970	11.909
4.987	11.920
5.003	11.916
5.020	11.934
5.036	11.938
5.053	11.897
5.070	11.913
5.086	11.908
5.103	11.869
5.119	11.888
5.136	11.881
5.153	11.931
5.169	11.899
5.186	11.909
5.203	11.909
5.219	11.896
5.236	11.906
5.252	11.942
5.269	11.889
5.286	11.911
5.302	11.905
5.319	11.881
5.336	11.871
5.352	11.895
5.369	11.906
5.385	11.910
5.402	11.911
5.419	11.929
5.435	11.910
5.452	11.899
5.469	11.926
5.485	11.911
5.502	11.941
5.518	11.924
5.535	11.960
5.552	11.941
5.568	11.915
5.585	11.931
5.602	11.880
5.618	11.894
5.635	11.927
5.651	11.905
5.668	11.904
5.685	11.888
5.701	11.896
5.718	11.895
5.734	11.910
5.751	11.880
5.768	11.914
5.784	11.890
5.801	11.873
5.818	11.908
5.834	11.915
5.851	11.911
5.867	11.913
5.884	11.909
5.901	11.883
5.917	11.873
5.934	11.865
5.951	11.891
5.967	11.879
5.984	11.861
6.000	11.901
6.017	11.879
6.034	11.901
6.050	11.909
6.067	11.898
6.084	11.908
6.100	11.919
6.117	11.857
6.133	11.881
6.150	11.912
6.167	11.893
6.183	11.888
6.200	11.867
6.217	11.880
6.233	11.888
6.250	11.870
6.266	11.904
6.283	11.888
6.300	11.900
6.316	11.864
6.333	11.888
6.349	11.918
6.366	11.892
6.383	11.872
6.399	11.867
6.416	11.875
6.433	11.885
6.449	11.885
6.466	11.870
6.482	11.890
6.499	11.924
6.516	11.899
6.532	11.897
6.549	11.909
6.566	11.897
6.582	11.938
6.599	11.884
6.615	11.933
6.632	11.911
6.649	11.887
6.665	11.879
6.682	11.893
6.699	11.892
6.715	11.914
6.732	11.861
6.748	11.918
6.765	11.890
6.782	11.853
6.798	11.890
6.815	11.922
6.832	11.884
6.848	11.896
6.865	11.904
6.881	11.899
6.898	11.909
6.915	11.894
6.931	11.898
6.948	11.873
6.964	11.868
6.981	11.901
6.998	11.901
7.014	11.865
7.031	11.872
7.048	11.889
7.064	11.874
7.081	11.884
7.097	11.880
7.114	11.906
7.131	11.910
7.147	11.863
7.164	11.848
7.181	11.869
7.197	11.896
7.214	11.882
7.230	11.882
7.247	11.932
7.264	11.924
7.280	11.904
7.297	11.914
7.314	11.926
7.330	11.853
7.347	11.879
7.363	11.871
7.380	11.875
7.397	11.873
7.413	11.860
7.430	11.867
7.447	11.855
7.463	11.883
7.480	11.884
7.496	11.884
7.513	11.874
7.530	11.892
7.546	11.883
7.563	11.886
7.579	11.848
7.596	11.865
7.613	11.875
7.629	11.876
7.646	11.876
7.663	11.871
7.679	11.880
7.696	11.878
7.712	11.876
7.729	11.878
7.746	11.913
7.762	11.911
7.779	11.895
7.796	11.884
7.812	11.865
7.829	11.894
7.845	11.862
7.862	11.887
7.879	11.873
7.895	11.827
7.912	11.857
7.929	11.903
7.945	11.860
7.962	11.881
7.978	11.861
7.995	11.872
8.012	11.824
8.028	11.853
8.045	11.876
8.062	11.881
8.078	11.877
8.095	11.885
8.111	11.867
8.128	11.884
8.145	11.877
8.161	11.865
8.178	11.859
8.194	11.858
8.211	11.852
8.228	11.793
8.244	11.829
8.261	11.842
8.278	11.836
8.294	11.871
8.311	11.901
8.327	11.835
8.344	11.877
8.361	11.906
8.377	11.889
8.394	11.872
8.411	11.873
8.427	11.887
8.444	11.884
8.460	11.846
8.477	11.851
8.494	11.862
8.510	11.848
8.527	11.879
8.544	11.851
8.560	11.888
8.577	11.906
8.593	11.859
8.610	11.883
8.627	11.859
8.643	11.874
8.660	11.833
8.677	11.861
8.693	11.847
8.710	11.853
8.726	11.842
8.743	11.808
8.760	11.828
8.776	11.839
8.793	11.810
8.809	11.834
8.826	11.882
8.843	11.850
8.859	11.831
8.876	11.840
8.893	11.865
8.909	11.891
8.926	11.839
8.942	11.850
8.959	11.815
8.976	11.847
8.992	11.869
9.009	11.853
9.026	11.868
9.042	11.842
9.059	11.822
9.075	11.831
9.092	11.829
9.109	11.859
9.125	11.824
9.142	11.840
9.159	11.806
9.175	11.834
9.192	11.838
9.208	11.849
9.225	11.856
9.242	11.873
9.258	11.868
9.275	11.855
9.292	11.860
9.308	11.831
9.325	11.829
9.341	11.848
9.358	11.858
9.375	11.866
9.391	11.848
9.408	11.863
9.424	11.828
9.441	11.841
9.458	11.835
9.474	11.854
9.491	11.835
9.508	11.796
9.524	11.842
9.541	11.845
9.557	11.871
9.574	11.865
9.591	11.858
9.607	11.851
9.624	11.859
9.641	11.902
9.657	11.857
9.674	11.846
9.690	11.832
9.707	11.828
9.724	11.838
9.740	11.842
9.757	11.847
9.774	11.840
9.790	11.845
9.807	11.852
9.823	11.825
9.840	11.823
9.857	11.832
9.873	11.833
9.890	11.806
9.907	11.831
9.923	11.831
9.940	11.824
9.956	11.836
9.973	11.850
9.990	11.821
10.006	11.842
10.023	11.796
10.039	11.813
10.056	11.849
10.073	11.829
10.089	11.846
10.106	11.815
10.123	11.816
10.139	11.815
10.156	11.825
10.172	11.802
10.189	11.792
10.206	11.791
10.222	11.782
10.239	11.803
10.256	11.847
10.272	11.829
10.289	11.815
10.305	11.820
10.322	11.823
10.339	11.821
10.355	11.836
10.372	11.818
10.389	11.819
10.405	11.834
10.422	11.827
10.438	11.819
10.455	11.829
10.472	11.840
10.488	11.854
10.505	11.853
10.522	11.855
10.538	11.831
10.555	11.826
10.571	11.806
10.588	11.861
10.605	11.863
10.621	11.850
10.638	11.841
10.654	11.852
10.671	11.849
10.688	11.832
10.704	11.844
10.721	11.816
10.738	11.845
10.754	11.836
10.771	11.866
10.787	11.849
10.804	11.875
10.821	11.793
10.837	11.849
10.854	11.780
10.871	11.811
10.887	11.792
10.904	11.774
10.920	11.777
10.937	11.792
10.954	11.777
10.970	11.801
10.987	11.816
11.004	11.847
11.020	11.852
11.037	11.812
11.053	11.817
11.070	11.844
11.087	11.841
11.103	11.832
11.120	11.793
11.137	11.819
11.153	11.806
11.170	11.844
11.186	11.798
11.203	11.825
11.220	11.819
11.236	11.823
11.253	11.758
11.269	11.798
11.286	11.754
11.303	11.796
11.319	11.769
11.336	11.794
11.353	11.764
11.369	11.785
11.386	11.787
11.402	11.806
11.419	11.799
11.436	11.787
11.452	11.787
11.469	11.775
11.486	11.794
11.502	11.778
11.519	11.801
11.535	11.826
11.552	11.837
11.569	11.836
11.585	11.837
11.602	11.793
11.619	11.810
11.635	11.792
11.652	11.812
11.668	11.783
11.685	11.774
11.702	11.820
11.718	11.806
11.735	11.786
11.752	11.796
11.768	11.804
11.785	11.805
11.801	11.846
11.818	11.813
11.835	11.822
11.851	11.852
11.868	11.817
11.884	11.805
11.901	11.779
11.918	11.854
11.934	11.827
11.951	11.814
11.968	11.805
11.984	11.806
12.001	11.802
12.017	11.838
12.034	11.806
12.051	11.803
12.067	11.802
12.084	11.791
12.101	11.807
12.117	11.830
12.134	11.831
12.150	11.814
12.167	11.832
12.184	11.810
12.200	11.803
12.217	11.800
12.234	11.801
12.250	11.813
12.267	11.799
12.283	11.785
12.300	11.815
12.317	11.822
12.333	11.786
12.350	11.799
12.367	11.839
12.383	11.829
12.400	11.786
12.416	11.781
12.433	11.820
12.450	11.851
12.466	11.840
12.483	11.827
12.499	11.793
12.516	11.786
12.533	11.787
12.549	11.778
12.566	11.780
12.583	11.811
12.599	11.786
12.616	11.797
12.632	11.796
12.649	11.795
12.666	11.752
12.682	11.781
12.699	11.763
12.716	11.797
12.732	11.803
12.749	11.795
12.765	11.815
12.782	11.810
12.799	11.809
12.815	11.825
12.832	11.815
12.849	11.787
12.865	11.802
12.882	11.818
12.898	11.799
12.915	11.827
12.932	11.802
12.948	11.769
12.965	11.766
12.982	11.768
12.998	11.779
13.015	11.769
13.031	11.803
13.048	11.792
13.065	11.796
13.081	11.809
13.098	11.790
13.114	11.800
13.131	11.782
13.148	11.776
13.164	11.784
13.181	11.809
13.198	11.820
13.214	11.837
13.231	11.801
13.247	11.799
13.264	11.822
13.281	11.825
13.297	11.789
13.314	11.785
13.331	11.818
13.347	11.758
13.364	11.771
13.380	11.781
13.397	11.799
13.414	11.791
13.430	11.821
13.447	11.788
13.464	11.848
13.480	11.806
13.497	11.789
13.513	11.796
13.530	11.781
13.547	11.774
13.563	11.766
13.580	11.742
13.596	11.754
13.613	11.735
13.630	11.778
13.646	11.766
13.663	11.794
13.680	11.779
13.696	11.809
13.713	11.814
13.729	11.784
13.746	11.793
13.763	11.800
13.779	11.796
13.796	11.815
13.813	11.810
13.829	11.783
13.846	11.786
13.862	11.729
13.879	11.749
13.896	11.759
13.912	11.777
13.929	11.764
13.946	11.753
13.962	11.742
13.979	11.754
13.995	11.733
14.012	11.762
14.029	11.770
14.045	11.788
14.062	11.803
14.079	11.779
14.095	11.782
14.112	11.797
14.128	11.800
14.145	11.781
14.162	11.790
14.178	11.799
14.195	11.759
14.211	11.765
14.228	11.781
14.245	11.788
14.261	11.735
14.278	11.724
14.295	11.740
14.311	11.777
14.328	11.769
14.344	11.784
14.361	11.759
14.378	11.794
14.394	11.790
14.411	11.813
14.428	11.804
14.444	11.811
14.461	11.813
14.477	11.793
14.494	11.788
14.511	11.799
14.527	11.800
14.544	11.796
14.561	11.792
14.577	11.782
14.594	11.814
14.610	11.787
14.627	11.786
14.644	11.789
14.660	11.784
14.677	11.833
14.694	11.780
14.710	11.802
14.727	11.797
14.743	11.822
14.760	11.809
14.777	11.865
14.793	11.808
14.810	11.824
14.826	11.813
14.843	11.819
14.860	11.820
14.876	11.820
14.893	11.772
14.910	11.777
14.926	11.781
14.943	11.763
14.959	11.768
14.976	11.801
14.993	11.765
15.009	11.797
15.026	11.769
15.043	11.804
15.059	11.789
15.076	11.777
15.092	11.776
15.109	11.770
15.126	11.756
15.142	11.793
15.159	11.792
15.176	11.791
15.192	11.788
15.209	11.801
15.225	11.769
15.242	11.798
15.259	11.798
15.275	11.832
15.292	11.769
15.309	11.772
15.325	11.777
15.342	11.782
15.358	11.783
15.375	11.782
15.392	11.773
15.408	11.750
15.425	11.755
15.441	11.796
15.458	11.779
15.475	11.804
15.491	11.827
15.508	11.794
15.525	11.793
15.541	11.784
15.558	11.805
15.574	11.768
15.591	11.788
15.608	11.775
15.624	11.758
15.641	11.783
15.658	11.786
15.674	11.744
15.691	11.780
15.707	11.760
15.724	11.785
15.741	11.804
15.757	11.832
15.774	11.801
15.791	11.788
15.807	11.781
15.824	11.750
15.840	11.772
15.857	11.797
15.874	11.810
15.890	11.756
15.907	11.807
15.924	11.775
15.940	11.780
15.957	11.759
15.973	11.763
15.990	11.786
16.007	11.805
16.023	11.795
16.040	11.742
16.056	11.730
16.073	11.787
16.090	11.753
16.106	11.759
16.123	11.761
16.140	11.738
16.156	11.798
16.173	11.776
16.189	11.752
16.206	11.727
16.223	11.758
16.239	11.736
16.256	11.758
16.273	11.793
16.289	11.804
16.306	11.771
16.322	11.757
16.339	11.774
16.356	11.764
16.372	11.747
16.389	11.749
16.406	11.734
16.422	11.764
16.439	11.748
16.455	11.752
16.472	11.766
16.489	11.735
16.505	11.727
16.522	11.761
16.539	11.773
16.555	11.796
16.572	11.804
16.588	11.804
16.605	11.775
16.622	11.768
16.638	11.772
16.655	11.774
16.671	11.759
16.688	11.764
16.705	11.732
16.721	11.760
16.738	11.805
16.755	11.788
16.771	11.821
16.788	11.775
16.804	11.787
16.821	11.782
16.838	11.789
16.854	11.786
16.871	11.788
16.888	11.779
16.904	11.792
16.921	11.796
16.937	11.747
16.954	11.787
16.971	11.743
16.987	11.760
17.004	11.761
17.021	11.729
17.037	11.731
17.054	11.734
17.070	11.740
17.087	11.707
17.104	11.711
17.120	11.713
17.137	11.719
17.154	11.731
17.170	11.774
17.187	11.761
17.203	11.783
17.220	11.748
17.237	11.740
17.253	11.749
17.270	11.748
17.286	11.748
17.303	11.771
17.320	11.761
17.336	11.745
17.353	11.745
17.370	11.751
17.386	11.734
17.403	11.739
17.419	11.709
17.436	11.746
17.453	11.739
17.469	11.753
17.486	11.735
17.503	11.715
17.519	11.729
17.536	11.752
17.552	11.788
17.569	11.757
17.586	11.798
17.602	11.761
17.619	11.765
17.636	11.748
17.652	11.757
17.669	11.783
17.685	11.755
17.702	11.768
17.719	11.797
17.735	11.790
17.752	11.785
17.769	11.762
17.785	11.767
17.802	11.780
17.818	11.723
17.835	11.728
17.852	11.746
17.868	11.762
17.885	11.785
17.901	11.744
17.918	11.747
17.935	11.733
17.951	11.731
17.968	11.759
17.985	11.743
18.001	11.700
18.018	11.725
18.034	11.739
18.051	11.739
18.068	11.714
18.084	11.726
18.101	11.670
18.118	11.738
18.134	11.756
18.151	11.719
18.167	11.749
18.184	11.714
18.201	11.717
18.217	11.723
18.234	11.728
18.251	11.714
18.267	11.747
18.284	11.742
18.300	11.727
18.317	11.757
18.334	11.764
18.350	11.759
18.367	11.757
18.384	11.757
18.400	11.751
18.417	11.755
18.433	11.725
18.450	11.759
18.467	11.773
18.483	11.754
18.500	11.814
18.516	11.769
18.533	11.787
18.550	11.810
18.566	11.752
18.583	11.749
18.600	11.772
18.616	11.742
18.633	11.716
18.649	11.707
18.666	11.740
18.683	11.729
18.699	11.726
18.716	11.731
18.733	11.739
18.749	11.752
18.766	11.777
18.782	11.741
18.799	11.724
18.816	11.729
18.832	11.749
18.849	11.732
18.866	11.747
18.882	11.752
18.899	11.767
18.915	11.733
18.932	11.746
18.949	11.695
18.965	11.763
18.982	11.739
18.999	11.724
19.015	11.753
19.032	11.722
19.048	11.749
19.065	11.746
19.082	11.720
19.098	11.735
19.115	11.747
19.131	11.727
19.148	11.709
19.165	11.720
19.181	11.699
19.198	11.723
19.215	11.723
19.231	11.735
19.248	11.745
19.264	11.738
19.281	11.732
19.298	11.747
19.314	11.764
19.331	11.747
19.348	11.721
19.364	11.724
19.381	11.707
19.397	11.722
19.414	11.752
19.431	11.732
19.447	11.725
19.464	11.717
19.481	11.709
19.497	11.699
19.514	11.702
19.530	11.684
19.547	11.689
19.564	11.669
19.580	11.711
19.597	11.740
19.614	11.736
19.630	11.746
19.647	11.723
19.663	11.743
19.680	11.749
19.697	11.702
19.713	11.741
19.730	11.721
19.746	11.743
19.763	11.703
19.780	11.718
19.796	11.692
19.813	11.723
19.830	11.706
19.846	11.706
19.863	11.728
19.879	11.694
19.896	11.713
19.913	11.724
19.929	11.715
19.946	11.736
19.963	11.678
19.979	11.705
19.996	11.718
20.012	11.696
20.029	11.693
20.046	11.694
20.062	11.691
20.079	11.696
20.096	11.689
20.112	11.689
20.129	11.689
20.145	11.649
20.162	11.676
20.179	11.694
20.195	11.680
20.212	11.695
20.229	11.676
20.245	11.713
20.262	11.691
20.278	11.674
20.295	11.671
20.312	11.688
20.328	11.685
20.345	11.661
20.361	11.689
20.378	11.651
20.395	11.668
20.411	11.684
20.428	11.685
20.445	11.670
20.461	11.666
20.478	11.695
20.494	11.672
20.511	11.678
20.528	11.734
20.544	11.712
20.561	11.704
20.578	11.721
20.594	11.750
20.611	11.744
20.627	11.692
20.644	11.697
20.661	11.677
20.677	11.692
20.694	11.725
20.711	11.724
20.727	11.729
20.744	11.714
20.760	11.699
20.777	11.711
20.794	11.693
20.810	11.695
20.827	11.689
20.844	11.679
20.860	11.703
20.877	11.666
20.893	11.681
20.910	11.668
20.927	11.674
20.943	11.669
20.960	11.740
20.976	11.697
20.993	11.692
21.010	11.688
21.026	11.702
21.043	11.665
21.060	11.733
21.076	11.710
21.093	11.691
21.109	11.707
21.126	11.712
21.143	11.716
21.159	11.718
21.176	11.722
21.193	11.729
21.209	11.705
21.226	11.680
21.242	11.687
21.259	11.708
21.276	11.711
21.292	11.725
21.309	11.739
21.326	11.702
21.342	11.718
21.359	11.716
21.375	11.721
21.392	11.738
21.409	11.690
21.425	11.680
21.442	11.753
21.459	11.738
21.475	11.725
21.492	11.754
21.508	11.739
21.525	11.747
21.542	11.710
21.558	11.761
21.575	11.712
21.591	11.699
21.608	11.714
21.625	11.724
21.641	11.754
21.658	11.752
21.675	11.744
21.691	11.718
21.708	11.712
21.724	11.763
21.741	11.697
21.758	11.699
21.774	11.715
21.791	11.723
21.808	11.743
21.824	11.721
21.841	11.724
21.857	11.701
21.874	11.702
21.891	11.697
21.907	11.730
21.924	11.730
21.941	11.724
21.957	11.711
21.974	11.715
21.990	11.723
22.007	11.724
22.024	11.752
22.040	11.727
22.057	11.740
22.074	11.718
22.090	11.712
22.107	11.703
22.123	11.710
22.140	11.703
22.157	11.680
22.173	11.693
22.190	11.671
22.206	11.715
22.223	11.675
22.240	11.709
22.256	11.717
22.273	11.692
22.290	11.694
22.306	11.709
22.323	11.688
22.339	11.703
22.356	11.708
22.373	11.697
22.389	11.701
22.406	11.650
22.423	11.683
22.439	11.703
22.456	11.709
22.472	11.701
22.489	11.679
22.506	11.684
22.522	11.685
22.539	11.682
22.556	11.704
22.572	11.694
22.589	11.719
22.605	11.692
22.622	11.696
22.639	11.714
22.655	11.695
22.672	11.672
22.689	11.667
22.705	11.669
22.722	11.676
22.738	11.656
22.755	11.716
22.772	11.691
22.788	11.702
22.805	11.672
22.821	11.673
22.838	11.681
22.855	11.690
22.871	11.656
22.888	11.682
22.905	11.667
22.921	11.683
22.938	11.669
22.954	11.685
22.971	11.685
22.988	11.693
23.004	11.654
23.021	11.666
23.038	11.676
23.054	11.660
23.071	11.682
23.087	11.643
23.104	11.648
23.121	11.678
23.137	11.693
23.154	11.671
23.171	11.682
23.187	11.706
23.204	11.673
23.220	11.683
23.237	11.664
23.254	11.689
23.270	11.679
23.287	11.675
23.304	11.681
23.320	11.676
23.337	11.704
23.353	11.690
23.370	11.680
23.387	11.651
23.403	11.645
23.420	11.667
23.436	11.661
23.453	11.637
23.470	11.655
23.486	11.646
23.503	11.636
23.520	11.645
23.536	11.628
23.553	11.602
23.569	11.627
23.586	11.663
23.603	11.640
23.619	11.638
23.636	11.609
23.653	11.627
23.669	11.702
23.686	11.668
23.702	11.656
23.719	11.665
23.736	11.641
23.752	11.655
23.769	11.645
23.786	11.662
23.802	11.657
23.819	11.658
23.835	11.667
23.852	11.653
23.869	11.662
23.885	11.648
23.902	11.622
23.919	11.649
23.935	11.671
23.952	11.660
23.968	11.637
23.985	11.644
24.002	11.657
24.018	11.675
24.035	11.647
24.051	11.660
24.068	11.622
24.085	11.640
24.101	11.619
24.118	11.647
24.135	11.676
24.151	11.706
24.168	11.670
24.184	11.674
24.201	11.640
24.218	11.643
24.234	11.637
24.251	11.607
24.268	11.611
24.284	11.605
24.301	11.610
24.317	11.653
24.334	11.642
24.351	11.645
24.367	11.655
24.384	11.650
24.401	11.671
