NW1 Channel 1 Rise @ 5V (EXP95)	
Time (s)	Current (mA)
0.025	48.274
0.055	48.282
0.085	48.296
0.115	48.300
0.145	48.312
0.175	48.326
0.205	48.342
0.236	48.352
0.266	48.359
0.296	48.360
0.326	48.360
0.356	48.362
0.387	48.366
0.417	48.379
0.447	48.391
0.477	48.403
0.507	48.410
0.538	48.418
0.568	48.430
0.598	48.437
0.628	48.439
0.658	48.444
0.688	48.471
0.719	48.513
0.749	48.520
0.779	48.518
0.809	48.516
0.839	48.521
0.870	48.521
0.900	48.524
0.930	48.520
0.960	48.528
0.990	48.538
1.021	48.538
1.051	48.540
1.081	48.555
1.111	48.553
1.141	48.550
1.172	48.554
1.202	48.567
1.232	48.567
1.262	48.571
1.292	48.581
1.323	48.589
1.353	48.590
1.383	48.588
1.413	48.590
1.443	48.591
1.473	48.593
1.504	48.590
1.534	48.597
1.564	48.597
1.594	48.605
1.624	48.610
1.655	48.607
1.685	48.608
1.715	48.621
1.745	48.622
1.775	48.619
1.806	48.627
1.836	48.627
1.866	48.625
1.896	48.624
1.926	48.624
1.956	48.624
1.987	48.621
2.017	48.620
2.047	48.616
2.077	48.615
2.107	48.614
2.138	48.624
2.168	48.631
2.198	48.631
2.228	48.635
2.258	48.641
2.289	48.646
2.319	48.645
2.349	48.649
2.379	48.647
2.409	48.648
2.439	48.647
2.470	48.646
2.500	48.645
2.530	48.643
2.560	48.641
2.590	48.643
2.621	48.641
2.651	48.638
2.681	48.634
2.711	48.639
2.741	48.640
2.772	48.640
2.802	48.639
2.832	48.646
2.862	48.649
2.892	48.647
2.922	48.648
2.953	48.650
2.983	48.655
3.013	48.652
3.043	48.664
3.073	48.668
3.104	48.672
3.134	48.673
3.164	48.675
3.194	48.676
3.224	48.678
3.254	48.687
3.285	48.686
3.315	48.685
3.345	48.684
3.375	48.683
3.405	48.681
3.436	48.681
3.466	48.681
3.496	48.680
3.526	48.684
3.556	48.685
3.587	48.689
3.617	48.690
3.647	48.690
3.677	48.689
3.707	48.690
3.738	48.688
3.768	48.688
3.798	48.692
3.828	48.694
3.858	48.694
3.889	48.697
3.919	48.698
3.949	48.704
3.979	48.704
4.009	48.704
4.039	48.705
4.070	48.708
4.100	48.707
4.130	48.706
4.160	48.704
4.190	48.703
4.221	48.711
4.251	48.716
4.281	48.722
4.311	48.725
4.341	48.724
4.372	48.726
4.402	48.729
4.432	48.727
4.462	48.725
4.492	48.726
4.523	48.732
4.553	48.734
4.583	48.737
4.613	48.736
4.643	48.735
4.674	48.730
4.704	48.734
4.734	48.737
4.764	48.744
4.794	48.744
4.825	48.744
4.855	48.745
4.885	48.748
4.915	48.746
4.945	48.744
4.976	48.742
5.006	48.757
5.036	48.757
5.066	48.759
5.096	48.758
5.127	48.758
5.157	48.755
5.187	48.753
5.217	48.762
5.247	48.770
5.277	48.769
5.308	48.771
5.338	48.769
5.368	48.770
5.398	48.775
5.428	48.774
5.459	48.775
5.489	48.774
5.519	48.777
5.549	48.775
5.579	48.775
5.609	48.775
5.640	48.775
5.670	48.781
5.700	48.782
5.730	48.787
5.760	48.788
5.791	48.790
5.821	48.796
5.851	48.798
5.881	48.799
5.911	48.805
5.942	48.807
5.972	48.809
6.002	48.808
6.032	48.806
6.062	48.806
6.092	48.807
6.123	48.811
6.153	48.816
6.183	48.824
6.213	48.824
6.243	48.826
6.274	48.824
6.304	48.823
6.334	48.821
6.364	48.820
6.394	48.818
6.424	48.817
6.455	48.815
6.485	48.813
6.515	48.811
6.545	48.809
6.575	48.807
6.606	48.807
6.636	48.809
6.666	48.810
6.696	48.815
6.726	48.817
6.757	48.815
6.787	48.815
6.817	48.813
6.847	48.813
6.877	48.812
6.907	48.813
6.938	48.811
6.968	48.810
6.998	48.808
7.028	48.807
7.058	48.810
7.089	48.811
7.119	48.812
7.149	48.812
7.179	48.811
7.209	48.811
7.240	48.812
7.270	48.812
7.300	48.816
7.330	48.815
7.360	48.819
7.390	48.819
7.421	48.819
7.451	48.822
7.481	48.824
7.511	48.826
7.541	48.832
7.572	48.833
7.602	48.835
7.632	48.838
7.662	48.840
7.692	48.840
7.722	48.839
7.753	48.839
7.783	48.838
7.813	48.838
7.843	48.837
7.873	48.839
7.904	48.842
7.934	48.842
7.964	48.840
7.994	48.840
8.024	48.843
8.055	48.846
8.085	48.853
8.115	48.855
8.145	48.855
8.175	48.855
8.205	48.854
8.236	48.852
8.266	48.850
8.296	48.849
8.326	48.848
8.356	48.847
8.387	48.845
8.417	48.845
8.447	48.847
8.477	48.847
8.507	48.846
8.538	48.845
8.568	48.844
8.598	48.844
8.628	48.845
8.658	48.844
8.688	48.843
8.719	48.843
8.749	48.845
8.779	48.845
8.809	48.845
8.839	48.851
8.870	48.851
8.900	48.851
8.930	48.850
8.960	48.850
8.990	48.849
9.020	48.847
9.051	48.847
9.081	48.846
9.111	48.845
9.141	48.844
9.171	48.843
9.202	48.843
9.232	48.846
9.262	48.851
9.292	48.852
9.322	48.853
9.353	48.852
9.383	48.851
9.413	48.854
9.443	48.854
9.473	48.854
9.503	48.852
9.534	48.851
9.564	48.850
9.594	48.849
9.624	48.849
9.654	48.849
9.685	48.848
9.715	48.847
9.745	48.847
9.775	48.849
9.805	48.849
9.836	48.854
9.866	48.861
9.896	48.866
9.926	48.867
9.956	48.867
9.987	48.873
10.017	48.874
10.047	48.873
10.077	48.873
10.107	48.874
10.137	48.877
10.168	48.877
10.198	48.877
10.228	48.876
10.258	48.875
10.288	48.874
10.319	48.876
10.349	48.876
10.379	48.875
10.409	48.875
10.439	48.874
10.469	48.876
10.500	48.877
10.530	48.879
10.560	48.880
10.590	48.885
10.620	48.885
10.651	48.886
10.681	48.886
10.711	48.887
10.741	48.886
10.771	48.884
10.802	48.884
10.832	48.883
10.862	48.883
10.892	48.884
10.922	48.885
10.953	48.884
10.983	48.884
11.013	48.885
11.043	48.885
11.073	48.884
11.104	48.885
11.134	48.886
11.164	48.886
11.194	48.884
11.224	48.884
11.255	48.884
11.285	48.883
11.315	48.883
11.345	48.883
11.375	48.883
11.405	48.883
11.436	48.882
11.466	48.882
11.496	48.882
11.526	48.882
11.556	48.881
11.587	48.882
11.617	48.883
11.647	48.883
11.677	48.883
11.707	48.887
11.738	48.887
11.768	48.887
11.798	48.887
11.828	48.887
11.858	48.886
11.888	48.887
11.919	48.889
11.949	48.887
11.979	48.886
12.009	48.884
12.039	48.884
12.070	48.883
12.100	48.883
12.130	48.892
12.160	48.900
12.190	48.900
12.221	48.903
12.251	48.905
12.281	48.904
12.311	48.904
12.341	48.903
12.372	48.904
12.402	48.904
12.432	48.905
12.462	48.907
12.492	48.906
12.523	48.905
12.553	48.904
12.583	48.904
12.613	48.905
12.643	48.911
12.674	48.922
12.704	48.927
12.734	48.927
12.764	48.926
12.794	48.926
12.825	48.925
12.855	48.924
12.885	48.923
12.915	48.922
12.945	48.924
12.976	48.924
13.006	48.922
13.036	48.922
13.066	48.921
13.096	48.920
13.127	48.920
13.157	48.921
13.187	48.919
13.217	48.918
13.247	48.917
13.278	48.916
13.308	48.916
13.338	48.915
13.368	48.919
13.398	48.918
13.429	48.918
13.459	48.922
13.489	48.921
13.519	48.920
13.549	48.919
13.580	48.918
13.610	48.919
13.640	48.918
13.670	48.917
13.700	48.921
13.731	48.920
13.761	48.919
13.791	48.917
13.821	48.916
13.851	48.915
13.882	48.917
13.912	48.920
13.942	48.925
13.972	48.925
14.002	48.924
14.033	48.926
14.063	48.927
14.093	48.926
14.123	48.926
14.153	48.928
14.184	48.927
14.214	48.927
14.244	48.927
14.274	48.925
14.304	48.924
14.334	48.926
14.365	48.927
14.395	48.926
14.425	48.926
14.455	48.927
14.485	48.929
14.516	48.931
14.546	48.930
14.576	48.929
14.606	48.928
14.636	48.927
14.667	48.927
14.697	48.928
14.727	48.927
14.757	48.927
14.787	48.926
14.818	48.925
14.848	48.926
14.878	48.929
14.908	48.931
14.938	48.929
14.969	48.928
14.999	48.928
15.029	48.927
15.059	48.926
15.089	48.928
15.120	48.928
15.150	48.929
15.180	48.932
15.210	48.942
15.240	48.942
15.271	48.941
15.301	48.940
15.331	48.940
15.361	48.939
15.391	48.939
15.422	48.944
15.452	48.944
15.482	48.943
15.512	48.944
15.542	48.944
15.572	48.943
15.603	48.943
15.633	48.942
15.663	48.941
15.693	48.941
15.723	48.941
15.754	48.940
15.784	48.940
15.814	48.939
15.844	48.939
15.874	48.938
15.905	48.937
15.935	48.936
15.965	48.935
15.995	48.935
16.025	48.939
16.056	48.942
16.086	48.942
16.116	48.941
16.146	48.944
16.176	48.944
16.207	48.944
16.237	48.943
16.267	48.943
16.297	48.942
16.327	48.946
16.358	48.947
16.388	48.949
16.418	48.948
16.448	48.948
16.478	48.949
16.508	48.948
16.539	48.948
16.569	48.948
16.599	48.948
16.629	48.952
16.659	48.952
16.690	48.951
16.720	48.952
16.750	48.954
16.780	48.953
16.810	48.953
16.841	48.953
16.871	48.954
16.901	48.953
16.931	48.952
16.961	48.952
16.991	48.956
17.022	48.956
17.052	48.956
17.082	48.956
17.112	48.957
17.142	48.958
17.173	48.957
17.203	48.957
17.233	48.957
17.263	48.959
17.293	48.959
17.323	48.959
17.354	48.961
17.384	48.961
17.414	48.960
17.444	48.960
17.474	48.959
17.505	48.964
17.535	48.965
17.565	48.964
17.595	48.963
17.625	48.964
17.656	48.964
17.686	48.963
17.716	48.965
17.746	48.965
17.776	48.963
17.806	48.963
17.837	48.965
17.867	48.964
17.897	48.964
17.927	48.964
17.957	48.963
17.988	48.964
18.018	48.965
18.048	48.965
18.078	48.965
18.108	48.964
18.139	48.964
18.169	48.965
18.199	48.964
18.229	48.963
18.259	48.963
18.289	48.962
18.320	48.962
18.350	48.962
18.380	48.962
18.410	48.961
18.440	48.960
18.471	48.959
18.501	48.958
18.531	48.959
18.561	48.962
18.591	48.963
18.622	48.965
18.652	48.973
18.682	48.974
18.712	48.973
18.742	48.974
18.772	48.974
18.803	48.973
18.833	48.973
18.863	48.972
18.893	48.972
18.923	48.971
18.954	48.970
18.984	48.969
19.014	48.968
19.044	48.966
19.074	48.967
19.104	48.966
19.135	48.965
19.165	48.965
19.195	48.966
19.225	48.965
19.255	48.965
19.286	48.966
19.316	48.967
19.346	48.967
19.376	48.967
19.406	48.967
19.437	48.966
19.467	48.965
19.497	48.965
19.527	48.964
19.557	48.964
19.587	48.967
19.618	48.968
19.648	48.968
19.678	48.968
19.708	48.966
19.738	48.967
19.769	48.966
19.799	48.966
19.829	48.969
19.859	48.969
19.889	48.970
19.920	48.971
19.950	48.970
19.980	48.970
20.010	48.969
20.040	48.970
20.070	48.969
20.101	48.968
20.131	48.967
20.161	48.967
20.191	48.964
20.221	48.969
20.252	48.971
20.282	48.970
20.312	48.970
20.342	48.970
20.372	48.972
20.403	48.981
20.433	48.987
20.463	48.986
20.493	48.985
20.523	48.991
20.553	48.991
20.584	48.992
20.614	48.991
20.644	48.991
20.674	48.990
20.704	48.993
20.735	48.994
20.765	48.996
20.795	48.997
20.825	48.998
20.855	49.004
20.886	49.004
20.916	49.004
20.946	49.006
20.976	49.008
21.006	49.008
21.036	49.008
21.067	49.008
21.097	49.009
21.127	49.011
21.157	49.012
21.187	49.014
21.218	49.017
21.248	49.019
21.278	49.023
21.308	49.025
21.338	49.025
21.369	49.026
21.399	49.026
21.429	49.027
21.459	49.027
21.489	49.028
21.519	49.028
21.550	49.027
21.580	49.029
21.610	49.029
21.640	49.031
21.670	49.038
21.701	49.038
21.731	49.038
21.761	49.038
21.791	49.038
21.821	49.038
21.852	49.039
21.882	49.039
21.912	49.039
21.942	49.039
21.972	49.041
22.002	49.045
22.033	49.045
22.063	49.044
22.093	49.043
22.123	49.050
22.153	49.051
22.184	49.051
22.214	49.051
22.244	49.051
22.274	49.051
22.304	49.051
22.335	49.050
22.365	49.050
22.395	49.051
22.425	49.051
22.455	49.051
22.485	49.051
22.516	49.052
22.546	49.052
22.576	49.055
22.606	49.054
22.636	49.054
22.667	49.053
22.697	49.052
22.727	49.050
22.757	49.052
22.787	49.052
22.818	49.051
22.848	49.052
22.878	49.052
22.908	49.052
22.938	49.052
22.968	49.052
22.999	49.053
23.029	49.054
23.059	49.054
23.089	49.054
23.119	49.053
23.150	49.053
23.180	49.053
23.210	49.054
23.240	49.055
23.270	49.057
23.300	49.061
23.331	49.062
23.361	49.062
23.391	49.066
23.421	49.069
23.451	49.069
23.482	49.069
23.512	49.068
23.542	49.068
23.572	49.067
23.602	49.067
23.632	49.070
23.663	49.069
23.693	49.068
23.723	49.068
23.753	49.068
23.783	49.068
23.814	49.067
23.844	49.067
23.874	49.067
23.904	49.067
23.934	49.067
23.965	49.066
23.995	49.066
24.025	49.066
24.055	49.065
24.085	49.066
24.115	49.066
24.146	49.066
24.176	49.066
24.206	49.066
24.236	49.069
24.266	49.069
24.297	49.068
24.327	49.068
24.357	49.068
24.387	49.067
24.417	49.066
24.447	49.070
24.478	49.069
24.508	49.071
24.538	49.072
24.568	49.071
24.598	49.071
24.629	49.071
24.659	49.072
24.689	49.073
24.719	49.076
24.749	49.081
24.780	49.081
24.810	49.080
24.840	49.080
24.870	49.085
24.900	49.086
24.931	49.086
24.961	49.085
24.991	49.085
25.021	49.084
25.051	49.084
25.082	49.084
25.112	49.087
25.142	49.087
25.172	49.086
25.202	49.082
25.232	49.082
25.263	49.082
25.293	49.083
25.323	49.090
25.353	49.094
25.383	49.093
25.414	49.093
25.444	49.093
25.474	49.093
25.504	49.092
25.534	49.093
25.565	49.093
25.595	49.093
25.625	49.092
25.655	49.092
25.685	49.092
25.716	49.092
25.746	49.092
25.776	49.092
25.806	49.093
25.836	49.093
25.867	49.093
25.897	49.093
25.927	49.092
25.957	49.092
25.987	49.092
26.018	49.095
26.048	49.098
26.078	49.101
26.108	49.102
26.138	49.103
26.169	49.103
26.199	49.104
26.229	49.106
26.259	49.109
26.289	49.109
26.320	49.111
26.350	49.111
26.380	49.110
26.410	49.110
26.440	49.112
26.471	49.113
26.501	49.115
26.531	49.120
26.561	49.120
26.591	49.120
26.622	49.119
26.652	49.119
26.682	49.119
26.712	49.119
26.742	49.118
26.773	49.118
26.803	49.118
26.833	49.118
26.863	49.117
26.893	49.117
26.924	49.119
26.954	49.119
26.984	49.118
27.014	49.118
27.044	49.118
27.074	49.118
27.105	49.118
27.135	49.117
27.165	49.117
27.195	49.117
27.225	49.117
27.256	49.117
27.286	49.117
27.316	49.117
27.346	49.116
27.376	49.116
27.407	49.115
27.437	49.116
27.467	49.116
27.497	49.115
27.527	49.115
27.558	49.115
27.588	49.115
27.618	49.114
27.648	49.114
27.678	49.114
27.709	49.113
27.739	49.113
27.769	49.113
27.799	49.112
27.829	49.112
27.860	49.112
27.890	49.112
27.920	49.113
27.950	49.113
27.980	49.113
28.011	49.113
28.041	49.113
28.071	49.113
28.101	49.113
28.131	49.113
28.162	49.113
28.192	49.114
28.222	49.114
28.252	49.113
28.282	49.113
28.313	49.113
28.343	49.113
28.373	49.113
28.403	49.113
28.433	49.113
28.464	49.114
28.494	49.114
28.524	49.114
28.554	49.114
28.584	49.113
28.615	49.113
28.645	49.113
28.675	49.112
28.705	49.114
28.735	49.113
28.766	49.113
28.796	49.114
28.826	49.114
28.856	49.113
28.886	49.113
28.916	49.113
28.947	49.113
28.977	49.116
29.007	49.116
29.037	49.116
29.067	49.115
29.098	49.115
29.128	49.114
29.158	49.114
29.188	49.113
29.218	49.113
29.249	49.113
29.279	49.112
29.309	49.112
29.339	49.112
29.369	49.112
29.400	49.112
29.430	49.112
29.460	49.116
29.490	49.116
29.520	49.116
29.551	49.116
29.581	49.116
29.611	49.115
29.641	49.115
29.671	49.115
29.702	49.114
29.732	49.115
29.762	49.115
29.792	49.115
29.822	49.116
29.853	49.116
29.883	49.116
29.913	49.117
29.943	49.118
29.973	49.118
30.004	49.118
30.034	49.118
30.064	49.118
30.094	49.118
30.124	49.120
30.155	49.120
30.185	49.120
30.215	49.120
30.245	49.120
30.275	49.119
30.306	49.119
30.336	49.119
30.366	49.120
30.396	49.120
30.426	49.119
30.457	49.119
30.487	49.119
30.517	49.119
30.547	49.118
30.577	49.118
30.608	49.118
30.638	49.118
30.668	49.119
30.698	49.118
30.728	49.118
30.759	49.119
30.789	49.119
30.819	49.119
30.849	49.118
30.879	49.118
30.910	49.118
30.940	49.119
30.970	49.119
31.000	49.121
31.030	49.124
31.061	49.126
31.091	49.134
31.121	49.134
31.151	49.134
31.181	49.134
31.212	49.134
31.242	49.133
31.272	49.133
31.302	49.132
31.332	49.132
31.363	49.131
31.393	49.131
31.423	49.131
31.453	49.132
31.483	49.133
31.513	49.135
31.544	49.135
31.574	49.139
31.604	49.139
31.634	49.138
31.664	49.138
31.695	49.138
31.725	49.138
31.755	49.138
31.785	49.138
31.815	49.138
31.846	49.138
31.876	49.138
31.906	49.138
31.936	49.138
31.966	49.138
31.997	49.138
32.027	49.138
32.057	49.137
32.087	49.137
32.117	49.137
32.148	49.137
32.178	49.137
32.208	49.137
32.238	49.137
32.268	49.143
32.299	49.144
32.329	49.144
32.359	49.144
32.389	49.144
32.419	49.145
32.449	49.146
32.480	49.146
32.510	49.146
32.540	49.147
32.570	49.148
32.600	49.148
32.631	49.148
32.661	49.148
32.691	49.148
32.721	49.151
32.751	49.151
32.782	49.150
32.812	49.150
32.842	49.150
32.872	49.150
32.902	49.149
32.932	49.149
32.963	49.150
32.993	49.149
33.023	49.149
33.053	49.149
33.083	49.149
33.114	49.149
33.144	49.149
33.174	49.149
33.204	49.149
33.234	49.150
33.265	49.149
33.295	49.149
33.325	49.149
33.355	49.149
33.385	49.155
33.416	49.159
33.446	49.158
33.476	49.159
33.506	49.159
33.536	49.159
33.567	49.158
33.597	49.158
33.627	49.158
33.657	49.158
33.687	49.158
33.717	49.157
33.748	49.157
33.778	49.156
33.808	49.156
33.838	49.156
33.868	49.156
33.899	49.156
33.929	49.157
33.959	49.157
33.989	49.157
34.019	49.158
34.049	49.158
34.080	49.158
34.110	49.158
34.140	49.158
34.170	49.158
34.200	49.158
34.231	49.158
34.261	49.158
34.291	49.158
34.321	49.158
34.351	49.158
34.382	49.158
34.412	49.158
34.442	49.158
34.472	49.158
34.502	49.158
34.532	49.157
34.563	49.157
34.593	49.157
34.623	49.157
34.653	49.156
34.683	49.156
34.714	49.156
34.744	49.156
34.774	49.157
34.804	49.157
34.834	49.157
34.865	49.157
34.895	49.157
34.925	49.157
34.955	49.157
34.985	49.159
35.015	49.158
35.046	49.158
35.076	49.158
35.106	49.157
35.136	49.157
35.166	49.157
35.197	49.156
35.227	49.156
35.257	49.156
35.287	49.156
35.317	49.156
35.348	49.156
35.378	49.155
35.408	49.155
35.438	49.160
35.468	49.160
35.498	49.162
35.529	49.164
35.559	49.165
35.589	49.165
35.619	49.169
35.649	49.169
35.680	49.168
35.710	49.168
35.740	49.168
35.770	49.168
35.800	49.168
35.831	49.167
35.861	49.167
35.891	49.167
35.921	49.167
35.951	49.167
35.981	49.167
36.012	49.167
36.042	49.166
36.072	49.166
36.102	49.166
36.132	49.166
36.163	49.166
36.193	49.166
36.223	49.166
36.253	49.166
36.283	49.166
36.313	49.166
36.344	49.167
36.374	49.167
36.404	49.166
36.434	49.166
36.464	49.165
36.495	49.165
36.525	49.164
36.555	49.164
36.585	49.164
36.615	49.165
36.646	49.165
36.676	49.165
36.706	49.165
36.736	49.165
36.766	49.164
36.796	49.163
36.827	49.160
36.857	49.159
36.887	49.159
36.917	49.159
36.947	49.159
36.978	49.158
37.008	49.159
37.038	49.161
37.068	49.162
37.098	49.162
37.129	49.163
37.159	49.163
37.189	49.163
37.219	49.162
37.249	49.162
37.279	49.162
37.310	49.162
37.340	49.161
37.370	49.161
37.400	49.162
37.430	49.162
37.461	49.162
37.491	49.162
37.521	49.162
37.551	49.161
37.581	49.161
37.611	49.161
37.642	49.161
37.672	49.161
37.702	49.160
37.732	49.160
37.762	49.159
37.793	49.159
37.823	49.159
37.853	49.159
37.883	49.160
37.913	49.163
37.944	49.164
37.974	49.170
38.004	49.171
38.034	49.171
38.064	49.171
38.095	49.172
38.125	49.172
38.155	49.171
38.185	49.171
38.215	49.172
38.245	49.171
38.276	49.171
38.306	49.171
38.336	49.171
38.366	49.173
38.396	49.173
38.427	49.173
38.457	49.173
38.487	49.173
38.517	49.173
38.547	49.173
38.578	49.173
38.608	49.173
38.638	49.173
38.668	49.174
38.698	49.175
38.728	49.175
38.759	49.175
38.789	49.175
38.819	49.175
38.849	49.177
38.879	49.177
38.910	49.179
38.940	49.179
38.970	49.179
39.000	49.180
39.030	49.181
39.060	49.181
39.091	49.181
39.121	49.181
39.151	49.181
39.181	49.181
39.211	49.181
39.242	49.181
39.272	49.181
39.302	49.181
39.332	49.181
39.362	49.181
39.393	49.181
39.423	49.182
39.453	49.182
39.483	49.182
39.513	49.182
39.543	49.184
39.574	49.184
39.604	49.185
39.634	49.185
39.664	49.184
39.694	49.184
39.725	49.184
39.755	49.184
39.785	49.184
39.815	49.183
39.845	49.183
39.876	49.182
39.906	49.181
39.936	49.184
39.966	49.187
39.996	49.187
40.026	49.190
40.057	49.190
40.087	49.189
40.117	49.189
40.147	49.189
40.177	49.189
40.208	49.189
40.238	49.189
40.268	49.189
40.298	49.189
40.328	49.189
40.359	49.190
40.389	49.191
40.419	49.194
40.449	49.195
40.479	49.196
40.509	49.196
40.540	49.196
40.570	49.197
40.600	49.198
40.630	49.198
40.660	49.198
40.691	49.198
40.721	49.197
40.751	49.198
40.781	49.198
40.811	49.198
40.842	49.199
40.872	49.199
40.902	49.199
40.932	49.199
40.962	49.199
40.992	49.199
41.023	49.200
41.053	49.200
41.083	49.200
41.113	49.200
41.143	49.200
41.174	49.199
41.204	49.199
41.234	49.199
41.264	49.199
41.294	49.198
41.325	49.198
41.355	49.199
41.385	49.199
41.415	49.199
41.445	49.199
41.475	49.199
41.506	49.199
41.536	49.199
41.566	49.199
41.596	49.199
41.626	49.199
41.657	49.199
41.687	49.199
41.717	49.199
41.747	49.199
41.777	49.199
41.808	49.199
41.838	49.201
41.868	49.204
41.898	49.203
41.928	49.204
41.958	49.204
41.989	49.205
42.019	49.205
42.049	49.205
42.079	49.205
42.109	49.205
42.140	49.205
42.170	49.207
42.200	49.207
42.230	49.207
42.260	49.207
42.290	49.207
42.321	49.206
42.351	49.206
42.381	49.206
42.411	49.206
42.441	49.206
42.472	49.206
42.502	49.206
42.532	49.206
42.562	49.206
42.592	49.205
42.623	49.205
42.653	49.205
42.683	49.204
42.713	49.204
42.743	49.204
42.773	49.203
42.804	49.203
42.834	49.203
42.864	49.204
42.894	49.206
42.924	49.205
42.955	49.207
42.985	49.206
43.015	49.206
43.045	49.207
43.075	49.207
43.105	49.207
43.136	49.208
43.166	49.208
43.196	49.207
43.226	49.207
43.256	49.211
43.287	49.211
43.317	49.211
43.347	49.210
43.377	49.210
43.407	49.210
43.438	49.211
43.468	49.212
43.498	49.211
43.528	49.211
43.558	49.210
43.589	49.214
43.619	49.214
43.649	49.213
43.679	49.213
43.709	49.214
