NW1 Channel 9 Rise @ 5V (EXP96)	
Time (s)	Current (mA)
0.025	55.122
0.055	55.133
0.085	55.127
0.115	55.126
0.145	55.120
0.175	55.109
0.205	55.101
0.236	55.109
0.266	55.137
0.296	55.144
0.326	55.141
0.356	55.141
0.387	55.165
0.417	55.172
0.447	55.186
0.477	55.194
0.507	55.196
0.538	55.218
0.568	55.226
0.598	55.231
0.628	55.233
0.658	55.232
0.688	55.227
0.719	55.241
0.749	55.249
0.779	55.253
0.809	55.250
0.839	55.246
0.870	55.238
0.900	55.231
0.930	55.225
0.960	55.221
0.990	55.217
1.020	55.223
1.051	55.215
1.081	55.230
1.111	55.225
1.141	55.228
1.171	55.229
1.202	55.224
1.232	55.223
1.262	55.225
1.292	55.240
1.322	55.238
1.353	55.237
1.383	55.244
1.413	55.241
1.443	55.236
1.473	55.232
1.503	55.226
1.534	55.222
1.564	55.218
1.594	55.216
1.624	55.213
1.654	55.213
1.685	55.211
1.715	55.207
1.745	55.206
1.775	55.203
1.805	55.202
1.836	55.211
1.866	55.220
1.896	55.225
1.926	55.218
1.956	55.213
1.986	55.217
2.017	55.214
2.047	55.213
2.077	55.207
2.107	55.204
2.137	55.209
2.168	55.213
2.198	55.215
2.228	55.214
2.258	55.222
2.288	55.222
2.319	55.221
2.349	55.223
2.379	55.231
2.409	55.226
2.439	55.220
2.469	55.219
2.500	55.216
2.530	55.211
2.560	55.211
2.590	55.206
2.620	55.201
2.651	55.198
2.681	55.198
2.711	55.197
2.741	55.196
2.771	55.191
2.802	55.187
2.832	55.184
2.862	55.178
2.892	55.175
2.922	55.172
2.953	55.172
2.983	55.168
3.013	55.164
3.043	55.161
3.073	55.158
3.104	55.162
3.134	55.168
3.164	55.166
3.194	55.165
3.224	55.164
3.255	55.173
3.285	55.172
3.315	55.170
3.345	55.176
3.375	55.178
3.406	55.175
3.436	55.173
3.466	55.170
3.496	55.170
3.526	55.167
3.557	55.164
3.587	55.164
3.617	55.160
3.647	55.161
3.677	55.160
3.707	55.159
3.738	55.156
3.768	55.152
3.798	55.149
3.828	55.148
3.858	55.146
3.889	55.148
3.919	55.159
3.949	55.175
3.979	55.177
4.009	55.175
4.040	55.177
4.070	55.176
4.100	55.177
4.130	55.178
4.160	55.176
4.191	55.172
4.221	55.168
4.251	55.169
4.281	55.167
4.311	55.167
4.342	55.168
4.372	55.166
4.402	55.163
4.432	55.160
4.462	55.158
4.493	55.154
4.523	55.151
4.553	55.148
4.583	55.146
4.613	55.143
4.643	55.135
4.674	55.134
4.704	55.131
4.734	55.132
4.764	55.130
4.794	55.127
4.825	55.127
4.855	55.130
4.885	55.133
4.915	55.131
4.945	55.130
4.975	55.128
5.006	55.126
5.036	55.124
5.066	55.123
5.096	55.132
5.126	55.136
5.157	55.138
5.187	55.141
5.217	55.144
5.247	55.144
5.277	55.141
5.308	55.138
5.338	55.136
5.368	55.134
5.398	55.131
5.428	55.129
5.458	55.128
5.489	55.128
5.519	55.128
5.549	55.127
5.579	55.124
5.609	55.122
5.640	55.123
5.670	55.120
5.700	55.118
5.730	55.116
5.760	55.113
5.790	55.109
5.821	55.109
5.851	55.108
5.881	55.106
5.911	55.105
5.941	55.105
5.972	55.104
6.002	55.106
6.032	55.105
6.062	55.104
6.092	55.102
6.122	55.100
6.153	55.097
6.183	55.095
6.213	55.093
6.243	55.095
6.273	55.093
6.304	55.091
6.334	55.091
6.364	55.089
6.394	55.099
6.424	55.100
6.455	55.099
6.485	55.099
6.515	55.098
6.545	55.097
6.575	55.095
6.605	55.093
6.636	55.096
6.666	55.094
6.696	55.095
6.726	55.097
6.756	55.107
6.787	55.114
6.817	55.113
6.847	55.111
6.877	55.112
6.907	55.114
6.937	55.113
6.968	55.113
6.998	55.112
7.028	55.109
7.058	55.107
7.088	55.106
7.119	55.103
7.149	55.104
7.179	55.102
7.209	55.103
7.239	55.102
7.269	55.105
7.300	55.104
7.330	55.102
7.360	55.101
7.390	55.103
7.420	55.107
7.451	55.105
7.481	55.102
7.511	55.099
7.541	55.098
7.571	55.096
7.601	55.093
7.632	55.092
7.662	55.091
7.692	55.091
7.722	55.092
7.752	55.092
7.783	55.090
7.813	55.088
7.843	55.086
7.873	55.086
7.903	55.087
7.934	55.087
7.964	55.088
7.994	55.089
8.024	55.091
8.054	55.089
8.084	55.088
8.115	55.087
8.145	55.085
8.175	55.088
8.205	55.088
8.235	55.087
8.266	55.089
8.296	55.092
8.326	55.093
8.356	55.097
8.386	55.097
8.416	55.097
8.447	55.098
8.477	55.099
8.507	55.097
8.537	55.099
8.567	55.101
8.598	55.099
8.628	55.098
8.658	55.104
8.688	55.109
8.718	55.114
8.749	55.114
8.779	55.112
8.809	55.111
8.839	55.110
8.869	55.109
8.899	55.107
8.930	55.106
8.960	55.105
8.990	55.104
9.020	55.102
9.050	55.100
9.081	55.099
9.111	55.097
9.141	55.097
9.171	55.095
9.201	55.098
9.231	55.098
9.262	55.096
9.292	55.095
9.322	55.092
9.352	55.089
9.382	55.086
9.413	55.093
9.443	55.094
9.473	55.092
9.503	55.089
9.533	55.084
9.563	54.770
9.594	55.077
9.624	55.081
9.654	55.082
9.684	55.082
9.714	55.082
9.745	55.084
9.775	55.086
9.805	55.087
9.835	55.089
9.865	55.091
9.896	55.092
9.926	55.092
9.956	55.093
9.986	55.093
10.016	55.091
10.046	55.094
10.077	55.096
10.107	55.098
10.137	55.098
10.167	55.100
10.197	55.101
10.228	55.101
10.258	55.099
10.288	55.099
10.318	55.101
10.348	55.101
10.379	55.099
10.409	55.100
10.439	55.099
10.469	55.098
10.499	55.096
10.529	55.095
10.560	55.094
10.590	55.091
10.620	55.092
10.650	55.094
10.680	55.094
10.711	55.093
10.741	55.092
10.771	55.092
10.801	55.093
10.831	55.097
10.861	55.098
10.892	55.097
10.922	55.097
10.952	55.098
10.982	55.098
11.012	55.097
11.043	55.096
11.073	55.100
11.103	55.101
11.133	55.101
11.163	55.103
11.194	55.102
11.224	55.104
11.254	55.104
11.284	55.104
11.314	55.108
11.344	55.107
11.375	55.105
11.405	55.105
11.435	55.104
11.465	55.103
11.495	55.102
11.526	55.101
11.556	55.100
11.586	55.100
11.616	55.099
11.646	55.098
11.676	55.099
11.707	55.099
11.737	55.098
11.767	55.099
11.797	55.098
11.827	55.098
11.858	55.100
11.888	55.099
11.918	55.099
11.948	55.098
11.978	55.097
12.008	55.096
12.039	55.098
12.069	55.100
12.099	55.099
12.129	55.099
12.159	55.102
12.190	55.101
12.220	55.103
12.250	55.103
12.280	55.103
12.310	55.102
12.341	55.101
12.371	55.100
12.401	55.099
12.431	55.099
12.461	55.100
12.491	55.100
12.522	55.100
12.552	55.099
12.582	55.099
12.612	55.098
12.642	55.097
12.673	55.096
12.703	55.095
12.733	55.095
12.763	55.095
12.793	55.094
12.823	55.092
12.854	55.093
12.884	55.092
12.914	55.092
12.944	55.092
12.974	55.094
13.005	55.101
13.035	55.104
13.065	55.105
13.095	55.104
13.125	55.104
13.155	55.103
13.186	55.103
13.216	55.103
13.246	55.106
13.276	55.107
13.306	55.107
13.337	55.108
13.367	55.110
13.397	55.113
13.427	55.115
13.457	55.118
13.487	55.121
13.518	55.122
13.548	55.122
13.578	55.122
13.608	55.127
13.638	55.127
13.669	55.125
13.699	55.126
13.729	55.125
13.759	55.125
13.789	55.126
13.819	55.128
13.850	55.130
13.880	55.130
13.910	55.130
13.940	55.132
13.970	55.132
14.001	55.131
14.031	55.131
14.061	55.132
14.091	55.131
14.121	55.130
14.152	55.131
14.182	55.130
14.212	55.130
14.242	55.129
14.272	55.128
14.302	55.128
14.333	55.130
14.363	55.129
14.393	55.146
14.423	55.148
14.453	55.147
14.484	55.147
14.514	55.146
14.544	55.146
14.574	55.145
14.604	55.145
14.634	55.145
14.665	55.144
14.695	55.144
14.725	55.150
14.755	55.150
14.785	55.149
14.816	55.149
14.846	55.148
14.876	55.149
14.906	55.152
14.936	55.152
14.967	55.151
14.997	55.150
15.027	55.149
15.057	55.148
15.087	55.147
15.117	55.146
15.148	55.147
15.178	55.148
15.208	55.147
15.238	55.146
15.268	55.145
15.299	55.144
15.329	55.144
15.359	55.143
15.389	55.142
15.419	55.141
15.450	55.138
15.480	55.140
15.510	55.142
15.540	55.144
15.570	55.148
15.600	55.150
15.631	55.154
15.661	55.158
15.691	55.160
15.721	55.167
15.751	55.169
15.782	55.169
15.812	55.169
15.842	55.171
15.872	55.169
15.902	55.172
15.933	55.172
15.963	55.172
15.993	55.172
16.023	55.171
16.053	55.171
16.084	55.170
16.114	55.172
16.144	55.171
16.174	55.171
16.204	55.175
16.235	55.177
16.265	55.178
16.295	55.179
16.325	55.180
16.355	55.181
16.385	55.183
16.416	55.183
16.446	55.184
16.476	55.184
16.506	55.184
16.536	55.183
16.567	55.183
16.597	55.182
16.627	55.182
16.657	55.182
16.687	55.181
16.718	55.182
16.748	55.182
16.778	55.205
16.808	55.209
16.838	55.210
16.869	55.209
16.899	55.210
16.929	55.209
16.959	55.209
16.989	55.208
17.020	55.207
17.050	55.207
17.080	55.206
17.110	55.206
17.140	55.206
17.171	55.214
17.201	55.214
17.231	55.213
17.261	55.212
17.291	55.212
17.321	55.210
17.352	55.210
17.382	55.210
17.412	55.209
17.442	55.209
17.472	55.208
17.503	55.207
17.533	55.207
17.563	55.206
17.593	55.205
17.623	55.203
17.654	55.203
17.684	55.203
17.714	55.204
17.744	55.204
17.774	55.203
17.805	55.203
17.835	55.202
17.865	55.202
17.895	55.204
17.925	55.204
17.956	55.204
17.986	55.203
18.016	55.204
18.046	55.204
18.076	55.206
18.107	55.206
18.137	55.206
18.167	55.208
18.197	55.207
18.227	55.207
18.258	55.207
18.288	55.207
18.318	55.211
18.348	55.213
18.378	55.214
18.409	55.214
18.439	55.213
18.469	55.213
18.499	55.213
18.529	55.213
18.559	55.213
18.590	55.217
18.620	55.216
18.650	55.216
18.680	55.216
18.710	55.216
18.741	55.215
18.771	55.214
18.801	55.214
18.831	55.215
18.861	55.215
18.892	55.215
18.922	55.216
18.952	55.216
18.982	55.215
19.012	55.218
19.042	55.217
19.073	55.217
19.103	55.218
19.133	55.217
19.163	55.218
19.193	55.217
19.224	55.216
19.254	55.216
19.284	55.216
19.314	55.216
19.344	55.216
19.374	55.215
19.405	55.215
19.435	55.214
19.465	55.213
19.495	55.213
19.525	55.212
19.556	55.212
19.586	55.211
19.616	55.211
19.646	55.211
19.676	55.214
19.707	55.213
19.737	55.213
19.767	55.213
19.797	55.215
19.827	55.214
19.857	55.214
19.888	55.213
19.918	55.218
19.948	55.218
19.978	55.218
20.008	55.218
20.039	55.218
20.069	55.218
20.099	55.217
20.129	55.218
20.159	55.217
20.189	55.217
20.220	55.217
20.250	55.216
20.280	55.219
20.310	55.221
20.340	55.221
20.371	55.220
20.401	55.220
20.431	55.221
20.461	55.221
20.491	55.221
20.522	55.220
20.552	55.220
20.582	55.219
20.612	55.220
20.642	55.219
20.672	55.219
20.703	55.218
20.733	55.218
20.763	55.218
20.793	55.218
20.823	55.217
20.854	55.217
20.884	55.216
20.914	55.217
20.944	55.217
20.974	55.218
21.004	55.218
21.035	55.217
21.065	55.216
21.095	55.215
21.125	55.215
21.155	55.214
21.186	55.215
21.216	55.214
21.246	55.214
21.276	55.214
21.306	55.214
21.336	55.214
21.367	55.214
21.397	55.213
21.427	55.212
21.457	55.212
21.487	55.212
21.518	55.211
21.548	55.212
21.578	55.213
21.608	55.214
21.638	55.213
21.669	55.213
21.699	55.214
21.729	55.214
21.759	55.213
21.789	55.213
21.819	55.213
21.850	55.213
21.880	55.214
21.910	55.214
21.940	55.213
21.970	55.213
22.000	55.213
22.031	55.213
22.061	55.212
22.091	55.212
22.121	55.211
22.151	55.211
22.182	55.211
22.212	55.210
22.242	55.210
22.272	55.209
22.302	55.208
22.333	55.208
22.363	55.208
22.393	55.208
22.423	55.209
22.453	55.211
22.484	55.209
22.514	55.208
22.544	55.208
22.574	55.208
22.604	55.205
22.634	55.204
22.665	55.204
22.695	55.204
22.725	55.204
22.755	55.203
22.785	55.203
22.816	55.203
22.846	55.203
22.876	55.203
22.906	55.202
22.936	55.202
22.967	55.202
22.997	55.203
23.027	55.202
23.057	55.203
23.087	55.203
23.118	55.204
23.148	55.204
23.178	55.207
23.208	55.209
23.238	55.209
23.269	55.209
23.299	55.211
23.329	55.212
23.359	55.212
23.389	55.211
23.420	55.211
23.450	55.211
23.480	55.209
23.510	55.209
23.540	55.211
23.571	55.211
23.601	55.210
23.631	55.210
23.661	55.210
23.691	55.209
23.721	55.209
23.752	55.210
23.782	55.209
23.812	55.207
23.842	55.207
23.872	55.207
23.903	55.209
23.933	55.209
23.963	55.209
23.993	55.216
24.023	55.216
24.054	55.216
24.084	55.217
24.114	55.218
24.144	55.218
24.174	55.217
24.204	55.218
24.235	55.219
24.265	55.219
24.295	55.219
24.325	55.219
24.355	55.218
24.386	55.218
24.416	55.218
24.446	55.221
24.476	55.221
24.506	55.220
24.536	55.221
24.567	55.221
24.597	55.220
24.627	55.220
24.657	55.219
24.687	55.220
24.718	55.223
24.748	55.223
24.778	55.223
24.808	55.222
24.838	55.222
24.869	55.222
24.899	55.222
24.929	55.222
24.959	55.221
24.989	55.221
25.019	55.221
25.050	55.220
25.080	55.220
25.110	55.220
25.140	55.220
25.170	55.220
25.201	55.220
25.231	55.219
25.261	55.219
25.291	55.219
25.321	55.219
25.351	55.219
25.382	55.219
25.412	55.218
25.442	55.217
25.472	55.217
25.502	55.217
25.533	55.218
25.563	55.217
25.593	55.217
25.623	55.216
25.653	55.216
25.683	55.215
25.714	55.216
25.744	55.217
25.774	55.216
25.804	55.216
25.834	55.216
25.865	55.216
25.895	55.215
25.925	55.215
25.955	55.214
25.985	55.214
26.016	55.215
26.046	55.216
26.076	55.219
26.106	55.219
26.136	55.219
26.166	55.219
26.197	55.220
26.227	55.220
26.257	55.220
26.287	55.220
26.317	55.220
26.348	55.220
26.378	55.220
26.408	55.220
26.438	55.220
26.468	55.220
26.498	55.220
26.529	55.219
26.559	55.219
26.589	55.219
26.619	55.218
26.649	55.219
26.680	55.221
26.710	55.221
26.740	55.220
26.770	55.220
26.800	55.220
26.830	55.221
26.861	55.220
26.891	55.221
26.921	55.221
26.951	55.221
26.981	55.222
27.012	55.222
27.042	55.222
27.072	55.221
27.102	55.221
27.132	55.220
27.162	55.220
27.193	55.220
27.223	55.219
27.253	55.219
27.283	55.219
27.313	55.219
27.344	55.218
27.374	55.218
27.404	55.218
27.434	55.218
27.464	55.219
27.494	55.220
27.525	55.219
27.555	55.218
27.585	55.218
27.615	55.218
27.645	55.217
27.676	55.216
27.706	55.217
27.736	55.217
27.766	55.216
27.796	55.218
27.826	55.218
27.857	55.218
27.887	55.218
27.917	55.217
27.947	55.216
27.977	55.216
28.008	55.216
28.038	55.216
28.068	55.216
28.098	55.215
28.128	55.215
28.158	55.215
28.189	55.216
28.219	55.215
28.249	55.215
28.279	55.215
28.309	55.215
28.340	55.214
28.370	55.213
28.400	55.213
28.430	55.213
28.460	55.211
28.491	55.213
28.521	55.213
28.551	55.213
28.581	55.213
28.611	55.212
28.641	55.212
28.672	55.212
28.702	55.212
28.732	55.212
28.762	55.213
28.792	55.214
28.823	55.213
28.853	55.213
28.883	55.213
28.913	55.213
28.943	55.214
28.973	55.215
29.004	55.214
29.034	55.214
29.064	55.215
29.094	55.215
29.124	55.214
29.155	55.214
29.185	55.213
29.215	55.214
29.245	55.214
29.275	55.214
29.306	55.214
29.336	55.214
29.366	55.213
29.396	55.213
29.426	55.213
29.456	55.213
29.487	55.213
29.517	55.212
29.547	55.212
29.577	55.212
29.607	55.211
29.638	55.212
29.668	55.212
29.698	55.210
29.728	55.210
29.758	55.211
29.788	55.212
29.819	55.213
29.849	55.213
29.879	55.213
29.909	55.212
29.939	55.212
29.970	55.212
30.000	55.212
30.030	55.213
30.060	55.213
30.090	55.214
30.120	55.214
30.151	55.214
30.181	55.213
30.211	55.213
30.241	55.213
30.271	55.213
30.302	55.213
30.332	55.213
30.362	55.213
30.392	55.212
30.422	55.212
30.453	55.212
30.483	55.212
30.513	55.213
30.543	55.263
30.573	55.287
30.603	55.292
30.634	55.295
30.664	55.298
30.694	55.299
30.724	55.299
30.754	55.299
30.785	55.301
30.815	55.301
30.845	55.302
30.875	55.302
30.905	55.302
30.935	55.303
30.966	55.303
30.996	55.304
31.026	55.305
31.056	55.305
31.086	55.305
31.117	55.303
31.147	55.303
31.177	55.304
31.207	55.304
31.237	55.304
31.268	55.305
31.298	55.305
31.328	55.304
31.358	55.304
31.388	55.304
31.418	55.304
31.449	55.306
31.479	55.307
31.509	55.307
31.539	55.307
31.569	55.306
31.600	55.305
31.630	55.306
31.660	55.307
31.690	55.308
31.720	55.306
31.750	55.305
31.781	55.307
31.811	55.306
31.841	55.307
31.871	55.308
31.901	55.311
31.932	55.311
31.962	55.312
31.992	55.311
32.022	55.311
32.052	55.312
32.082	55.312
32.113	55.313
32.143	55.312
32.173	55.313
32.203	55.312
32.233	55.312
32.264	55.312
32.294	55.313
32.324	55.313
32.354	55.313
32.384	55.312
32.415	55.312
32.445	55.312
32.475	55.312
32.505	55.313
32.535	55.313
32.565	55.313
32.596	55.312
32.626	55.312
32.656	55.312
32.686	55.313
32.716	55.313
32.747	55.313
32.777	55.313
32.807	55.314
32.837	55.313
32.867	55.313
32.897	55.313
32.928	55.312
32.958	55.313
32.988	55.313
33.018	55.313
33.048	55.314
33.079	55.314
33.109	55.314
33.139	55.313
33.169	55.312
33.199	55.312
33.229	55.312
33.260	55.312
33.290	55.312
33.320	55.312
33.350	55.311
33.380	55.312
33.411	55.314
33.441	55.315
33.471	55.317
33.501	55.318
33.531	55.318
33.562	55.318
33.592	55.318
33.622	55.319
33.652	55.319
33.682	55.319
33.712	55.319
33.743	55.319
33.773	55.320
33.803	55.321
33.833	55.322
33.863	55.321
33.894	55.321
33.924	55.322
33.954	55.322
33.984	55.322
34.014	55.322
34.044	55.321
34.075	55.322
34.105	55.322
34.135	55.322
34.165	55.322
34.195	55.325
34.226	55.325
34.256	55.326
34.286	55.325
34.316	55.326
34.346	55.326
34.377	55.326
34.407	55.327
34.437	55.327
34.467	55.327
34.497	55.329
34.527	55.330
34.558	55.330
34.588	55.331
34.618	55.331
34.648	55.331
34.678	55.331
34.708	55.331
34.739	55.330
34.769	55.330
34.799	55.331
34.829	55.330
34.859	55.330
34.890	55.330
34.920	55.330
34.950	55.330
34.980	55.330
35.010	55.329
35.041	55.329
35.071	55.330
35.101	55.330
35.131	55.330
35.161	55.330
35.191	55.330
35.222	55.329
35.252	55.328
35.282	55.329
35.312	55.328
35.342	55.328
35.373	55.328
35.403	55.329
35.433	55.328
35.463	55.328
35.493	55.329
35.523	55.330
35.554	55.330
35.584	55.329
35.614	55.330
35.644	55.330
35.674	55.330
35.705	55.330
35.735	55.331
35.765	55.332
35.795	55.332
35.825	55.334
35.855	55.335
35.886	55.336
35.916	55.336
35.946	55.336
35.976	55.337
36.006	55.338
36.037	55.338
36.067	55.338
36.097	55.338
36.127	55.337
36.157	55.337
36.187	55.338
36.218	55.338
36.248	55.338
36.278	55.338
36.308	55.338
36.338	55.338
36.369	55.338
36.399	55.339
36.429	55.339
36.459	55.340
36.489	55.340
36.520	55.339
36.550	55.339
36.580	55.339
36.610	55.339
36.640	55.339
36.670	55.338
36.701	55.338
36.731	55.339
36.761	55.339
36.791	55.338
36.821	55.339
36.852	55.339
36.882	55.338
36.912	55.338
36.942	55.338
36.972	55.338
37.002	55.338
37.033	55.338
37.063	55.338
37.093	55.338
37.123	55.339
37.153	55.340
37.184	55.340
37.214	55.340
37.244	55.340
37.274	55.340
37.304	55.340
37.334	55.340
37.365	55.343
37.395	55.344
37.425	55.344
37.455	55.344
37.485	55.344
37.516	55.344
37.546	55.344
37.576	55.345
37.606	55.344
37.636	55.344
37.666	55.344
37.697	55.344
37.727	55.344
37.757	55.344
37.787	55.344
37.817	55.342
37.848	55.344
37.878	55.344
37.908	55.343
37.938	55.344
37.968	55.343
37.998	55.344
38.029	55.345
38.059	55.346
38.089	55.346
38.119	55.348
38.149	55.351
38.180	55.351
38.210	55.352
38.240	55.353
38.270	55.353
38.300	55.353
38.331	55.353
38.361	55.353
38.391	55.353
38.421	55.353
38.451	55.354
38.482	55.354
38.512	55.354
38.542	55.354
38.572	55.356
38.602	55.358
38.632	55.358
38.663	55.358
38.693	55.358
38.723	55.358
38.753	55.359
38.783	55.358
38.814	55.358
38.844	55.357
38.874	55.357
38.904	55.357
38.934	55.356
38.965	55.354
38.995	55.355
39.025	55.357
39.055	55.357
39.085	55.358
39.116	55.359
39.146	55.360
39.176	55.360
39.206	55.360
39.236	55.361
39.267	55.361
39.297	55.361
39.327	55.362
39.357	55.362
39.387	55.366
39.418	55.366
39.448	55.366
39.478	55.366
39.508	55.366
39.538	55.366
39.569	55.366
39.599	55.366
39.629	55.366
39.659	55.367
39.689	55.367
39.719	55.367
39.750	55.367
39.780	55.367
39.810	55.367
39.840	55.367
39.870	55.367
39.901	55.367
39.931	55.367
39.961	55.367
39.991	55.367
40.021	55.367
40.052	55.367
40.082	55.367
40.112	55.367
40.142	55.367
40.172	55.367
40.203	55.367
40.233	55.367
40.263	55.369
40.293	55.370
40.323	55.371
40.354	55.372
40.384	55.371
40.414	55.371
40.444	55.371
40.474	55.371
40.504	55.371
40.535	55.371
40.565	55.371
40.595	55.371
40.625	55.371
40.655	55.371
40.686	55.370
40.716	55.370
40.746	55.369
40.776	55.369
40.806	55.371
40.837	55.371
40.867	55.371
40.897	55.370
40.927	55.369
40.957	55.370
40.988	55.370
41.018	55.370
41.048	55.370
41.078	55.370
41.108	55.370
41.139	55.370
41.169	55.370
41.199	55.370
41.229	55.371
41.259	55.372
41.290	55.371
41.320	55.370
41.350	55.373
41.380	55.373
41.410	55.373
41.440	55.374
41.471	55.374
41.501	55.375
41.531	55.375
41.561	55.375
41.591	55.376
41.622	55.375
41.652	55.376
41.682	55.376
41.712	55.375
41.742	55.375
41.773	55.375
41.803	55.375
41.833	55.375
41.863	55.375
41.893	55.375
41.924	55.375
41.954	55.375
41.984	55.375
42.014	55.375
42.044	55.375
42.075	55.374
42.105	55.374
42.135	55.375
42.165	55.375
42.195	55.374
42.226	55.375
42.256	55.376
42.286	55.377
42.316	55.376
42.346	55.378
42.376	55.378
42.407	55.379
42.437	55.378
42.467	55.379
42.497	55.379
42.527	55.381
42.558	55.381
42.588	55.381
42.618	55.382
42.648	55.383
42.678	55.383
42.709	55.383
42.739	55.383
42.769	55.383
42.799	55.383
42.829	55.383
42.860	55.384
42.890	55.384
42.920	55.384
42.950	55.384
42.980	55.383
43.011	55.384
43.041	55.384
43.071	55.384
43.101	55.385
43.131	55.385
43.161	55.386
43.192	55.385
43.222	55.384
43.252	55.384
43.282	55.384
43.312	55.384
43.343	55.385
43.373	55.386
43.403	55.386
43.433	55.387
43.463	55.388
43.494	55.388
43.524	55.388
43.554	55.388
43.584	55.388
43.614	55.388
43.645	55.388
43.675	55.388
43.705	55.388
