NW1 Channel 9 Rise @ 5V (EXP56)	
Time (s)	Current (mA)
0.025	49.176
0.055	49.918
0.085	50.159
0.115	50.359
0.145	50.455
0.175	50.524
0.205	50.225
0.236	50.068
0.266	50.228
0.296	50.267
0.326	50.316
0.356	50.345
0.387	50.378
0.417	50.437
0.447	50.519
0.477	50.826
0.507	50.915
0.538	51.048
0.568	51.122
0.598	51.199
0.628	51.260
0.658	51.292
0.689	51.331
0.719	51.403
0.749	51.454
0.779	51.526
0.809	51.552
0.839	51.562
0.870	51.575
0.900	51.605
0.930	51.693
0.960	51.710
0.990	51.737
1.021	51.775
1.051	51.794
1.081	51.811
1.111	51.832
1.141	51.849
1.172	51.857
1.202	51.928
1.232	51.957
1.262	51.972
1.292	51.997
1.322	52.000
1.353	52.013
1.383	52.015
1.413	52.035
1.443	52.047
1.473	52.072
1.504	52.158
1.534	52.166
1.564	52.194
1.594	52.202
1.624	52.208
1.655	52.223
1.685	52.254
1.715	52.288
1.745	52.307
1.775	52.343
1.806	52.355
1.836	52.358
1.866	52.375
1.896	52.415
1.926	52.421
1.956	52.444
1.987	52.501
2.017	52.522
2.047	52.534
2.077	52.542
2.107	52.585
2.138	52.607
2.168	52.623
2.198	52.645
2.228	52.677
2.258	52.703
2.289	52.708
2.319	52.707
2.349	52.719
2.379	52.732
2.409	52.736
2.439	52.734
2.470	52.732
2.500	52.733
2.530	52.733
2.560	52.733
2.590	52.739
2.621	52.756
2.651	52.775
2.681	52.780
2.711	52.783
2.741	52.790
2.771	52.828
2.802	52.858
2.832	52.859
2.862	52.871
2.892	52.876
2.922	52.887
2.953	52.888
2.983	52.891
3.013	52.905
3.043	52.935
3.073	52.942
3.104	52.953
3.134	52.959
3.164	52.962
3.194	52.965
3.224	52.969
3.254	52.969
3.285	53.003
3.315	53.011
3.345	53.015
3.375	53.015
3.405	53.020
3.436	53.041
3.466	53.057
3.496	53.065
3.526	53.074
3.556	53.079
3.587	53.083
3.617	53.086
3.647	53.094
3.677	53.098
3.707	53.111
3.738	53.112
3.768	53.117
3.798	53.129
3.828	53.132
3.858	53.148
3.888	53.179
3.919	53.184
3.949	53.187
3.979	53.191
4.009	53.200
4.039	53.203
4.070	53.207
4.100	53.210
4.130	53.210
4.160	53.217
4.190	53.221
4.221	53.222
4.251	53.224
4.281	53.242
4.311	53.248
4.341	53.257
4.372	53.264
4.402	53.272
4.432	53.274
4.462	53.273
4.492	53.286
4.522	53.296
4.553	53.298
4.583	53.301
4.613	53.306
4.643	53.313
4.673	53.312
4.704	53.320
4.734	53.328
4.764	53.339
4.794	53.339
4.824	53.335
4.854	53.343
4.885	53.349
4.915	53.362
4.945	53.362
4.975	53.366
5.005	53.364
5.036	53.368
5.066	53.376
5.096	53.379
5.126	53.388
5.156	53.389
5.187	53.388
5.217	53.391
5.247	53.390
5.277	53.401
5.307	53.402
5.337	53.401
5.368	53.402
5.398	53.403
5.428	53.406
5.458	53.409
5.488	53.415
5.519	53.437
5.549	53.440
5.579	53.441
5.609	53.445
5.639	53.445
5.670	53.443
5.700	53.440
5.730	53.445
5.760	53.454
5.790	53.465
5.821	53.469
5.851	53.467
5.881	53.469
5.911	53.471
5.941	53.467
5.972	53.473
6.002	53.476
6.032	53.476
6.062	53.474
6.092	53.476
6.123	53.475
6.153	53.478
6.183	53.483
6.213	53.483
6.243	53.481
6.273	53.486
6.304	53.489
6.334	53.493
6.364	53.500
6.394	53.499
6.424	53.500
6.455	53.511
6.485	53.511
6.515	53.514
6.545	53.521
6.575	53.525
6.606	53.526
6.636	53.525
6.666	53.529
6.696	53.527
6.726	53.526
6.756	53.528
6.787	53.533
6.817	53.542
6.847	53.573
6.877	53.580
6.907	53.593
6.938	53.598
6.968	53.600
6.998	53.602
7.028	53.610
7.058	53.611
7.089	53.611
7.119	53.618
7.149	53.617
7.179	53.619
7.209	53.627
7.240	53.629
7.270	53.627
7.300	53.630
7.330	53.645
7.360	53.654
7.390	53.657
7.421	53.655
7.451	53.669
7.481	53.671
7.511	53.673
7.541	53.678
7.572	53.682
7.602	53.685
7.632	53.692
7.662	53.698
7.692	53.703
7.723	53.704
7.753	53.708
7.783	53.714
7.813	53.712
7.843	53.724
7.874	53.736
7.904	53.737
7.934	53.736
7.964	53.736
7.994	53.734
8.024	53.741
8.055	53.747
8.085	53.748
8.115	53.750
8.145	53.751
8.175	53.752
8.206	53.756
8.236	53.756
8.266	53.755
8.296	53.755
8.326	53.753
8.356	53.757
8.387	53.756
8.417	53.762
8.447	53.775
8.477	53.786
8.507	53.794
8.538	53.794
8.568	53.800
8.598	53.812
8.628	53.814
8.658	53.822
8.689	53.829
8.719	53.831
8.749	53.832
8.779	53.838
8.809	53.835
8.840	53.848
8.870	53.848
8.900	53.859
8.930	53.889
8.960	53.891
8.990	53.899
9.021	53.903
9.051	53.913
9.081	53.915
9.111	53.918
9.141	53.926
9.172	53.933
9.202	53.936
9.232	53.937
9.262	53.941
9.292	53.941
9.323	53.944
9.353	53.950
9.383	53.955
9.413	53.956
9.443	53.963
9.473	53.963
9.504	53.964
9.534	53.969
9.564	53.971
9.594	53.977
9.624	53.980
9.655	53.982
9.685	53.982
9.715	53.983
9.745	53.984
9.775	53.985
9.806	53.985
9.836	53.986
9.866	53.987
9.896	53.988
9.926	53.989
9.957	53.989
9.987	53.987
10.017	53.986
10.047	53.986
10.077	53.986
10.107	53.986
10.138	53.986
10.168	53.992
10.198	53.992
10.228	53.993
10.258	53.993
10.289	53.994
10.319	53.995
10.349	53.995
10.379	53.997
10.409	53.997
10.440	53.998
10.470	53.999
10.500	54.005
10.530	54.007
10.560	54.009
10.591	54.010
10.621	54.014
10.651	54.014
10.681	54.014
10.711	54.014
10.742	54.014
10.772	54.016
10.802	54.016
10.832	54.019
10.862	54.020
10.893	54.020
10.923	54.020
10.953	54.020
10.983	54.022
11.013	54.032
11.044	54.035
11.074	54.045
11.104	54.048
11.134	54.048
11.164	54.051
11.194	54.053
11.225	54.054
11.255	54.058
11.285	54.062
11.315	54.062
11.345	54.067
11.376	54.070
11.406	54.083
11.436	54.089
11.466	54.093
11.496	54.094
11.526	54.096
11.557	54.106
11.587	54.107
11.617	54.109
11.647	54.110
11.677	54.121
11.708	54.125
11.738	54.127
11.768	54.128
11.798	54.136
11.828	54.146
11.859	54.150
11.889	54.151
11.919	54.156
11.949	54.158
11.979	54.158
12.009	54.159
12.040	54.162
12.070	54.175
12.100	54.176
12.130	54.176
12.160	54.178
12.191	54.181
12.221	54.180
12.251	54.179
12.281	54.186
12.311	54.187
12.342	54.188
12.372	54.188
12.402	54.189
12.432	54.190
12.462	54.191
12.493	54.196
12.523	54.199
12.553	54.200
12.583	54.200
12.613	54.200
12.644	54.202
12.674	54.207
12.704	54.207
12.734	54.207
12.764	54.207
12.795	54.210
12.825	54.213
12.855	54.219
12.885	54.221
12.915	54.220
12.946	54.220
12.976	54.216
13.006	54.223
13.036	54.225
13.066	54.229
13.097	54.231
13.127	54.232
13.157	54.234
13.187	54.235
13.217	54.236
13.247	54.238
13.278	54.238
13.308	54.238
13.338	54.239
13.368	54.241
13.398	54.242
13.429	54.241
13.459	54.242
13.489	54.243
13.519	54.246
13.549	54.248
13.580	54.251
13.610	54.252
13.640	54.262
13.670	54.264
13.700	54.268
13.730	54.269
13.761	54.270
13.791	54.270
13.821	54.270
13.851	54.269
13.881	54.270
13.912	54.271
13.942	54.271
13.972	54.275
14.002	54.277
14.032	54.281
14.062	54.282
14.093	54.281
14.123	54.282
14.153	54.284
14.183	54.291
14.213	54.292
14.244	54.295
14.274	54.299
14.304	54.304
14.334	54.304
14.364	54.305
14.395	54.312
14.425	54.314
14.455	54.314
14.485	54.316
14.515	54.323
14.545	54.336
14.576	54.339
14.606	54.343
14.636	54.343
14.666	54.344
14.696	54.346
14.727	54.355
14.757	54.362
14.787	54.364
14.817	54.365
14.847	54.367
14.878	54.370
14.908	54.372
14.938	54.377
14.968	54.380
14.998	54.383
15.028	54.386
15.059	54.387
15.089	54.387
15.119	54.391
15.149	54.392
15.179	54.394
15.210	54.398
15.240	54.399
15.270	54.398
15.300	54.397
15.330	54.397
15.361	54.400
15.391	54.401
15.421	54.407
15.451	54.407
15.481	54.408
15.512	54.410
15.542	54.411
15.572	54.413
15.602	54.413
15.632	54.416
15.663	54.419
15.693	54.420
15.723	54.420
15.753	54.420
15.783	54.421
15.814	54.423
15.844	54.424
15.874	54.425
15.904	54.425
15.934	54.425
15.965	54.426
15.995	54.448
16.025	54.449
16.055	54.449
16.085	54.451
16.116	54.452
16.146	54.452
16.176	54.459
16.206	54.464
16.236	54.467
16.266	54.469
16.297	54.469
16.327	54.472
16.357	54.472
16.387	54.473
16.417	54.474
16.448	54.476
16.478	54.476
16.508	54.478
16.538	54.481
16.568	54.482
16.599	54.483
16.629	54.485
16.659	54.485
16.689	54.486
16.719	54.487
16.749	54.487
16.780	54.490
16.810	54.492
16.840	54.498
16.870	54.502
16.900	54.505
16.931	54.506
16.961	54.506
16.991	54.511
17.021	54.514
17.051	54.515
17.081	54.515
17.112	54.519
17.142	54.527
17.172	54.528
17.202	54.529
17.232	54.529
17.263	54.530
17.293	54.530
17.323	54.532
17.353	54.533
17.383	54.534
17.413	54.536
17.444	54.538
17.474	54.539
17.504	54.541
17.534	54.542
17.564	54.543
17.595	54.543
17.625	54.545
17.655	54.547
17.685	54.548
17.715	54.553
17.746	54.554
17.776	54.554
17.806	54.558
17.836	54.559
17.866	54.560
17.897	54.564
17.927	54.565
17.957	54.566
17.987	54.567
18.017	54.570
18.047	54.571
18.078	54.573
18.108	54.574
18.138	54.574
18.168	54.578
18.198	54.582
18.229	54.582
18.259	54.583
18.289	54.584
18.319	54.584
18.349	54.586
18.380	54.613
18.410	54.616
18.440	54.620
18.470	54.621
18.500	54.621
18.531	54.623
18.561	54.622
18.591	54.627
18.621	54.628
18.651	54.630
18.682	54.631
18.712	54.632
18.742	54.633
18.772	54.633
18.802	54.633
18.832	54.632
18.863	54.633
18.893	54.634
18.923	54.630
18.953	54.636
18.983	54.636
19.014	54.635
19.044	54.635
19.074	54.635
19.104	54.635
19.134	54.635
19.165	54.635
19.195	54.637
19.225	54.637
19.255	54.639
19.285	54.638
19.315	54.637
19.346	54.643
19.376	54.643
19.406	54.643
19.436	54.643
19.466	54.643
19.497	54.644
19.527	54.646
19.557	54.654
19.587	54.659
19.617	54.660
19.648	54.661
19.678	54.663
19.708	54.663
19.738	54.663
19.768	54.664
19.798	54.666
19.829	54.669
19.859	54.670
19.889	54.672
19.919	54.674
19.949	54.677
19.980	54.680
20.010	54.687
20.040	54.688
20.070	54.688
20.100	54.688
20.130	54.689
20.161	54.690
20.191	54.690
20.221	54.692
20.251	54.695
20.281	54.697
20.312	54.698
20.342	54.701
20.372	54.701
20.402	54.701
20.432	54.703
20.463	54.704
20.493	54.708
20.523	54.708
20.553	54.708
20.583	54.708
20.613	54.708
20.644	54.710
20.674	54.711
20.704	54.711
20.734	54.712
20.764	54.713
20.795	54.715
20.825	54.730
20.855	54.739
20.885	54.739
20.915	54.740
20.946	54.740
20.976	54.744
21.006	54.745
21.036	54.745
21.066	54.751
21.097	54.751
21.127	54.751
21.157	54.752
21.187	54.753
21.217	54.755
21.247	54.757
21.278	54.779
21.308	54.787
21.338	54.792
21.368	54.795
21.398	54.796
21.429	54.797
21.459	54.797
21.489	54.799
21.519	54.801
21.549	54.801
21.580	54.805
21.610	54.806
21.640	54.808
21.670	54.809
21.700	54.810
21.731	54.811
21.761	54.812
21.791	54.812
21.821	54.812
21.851	54.813
21.882	54.815
21.912	54.817
21.942	54.818
21.972	54.818
22.002	54.818
22.032	54.818
22.063	54.819
22.093	54.819
22.123	54.821
22.153	54.821
22.183	54.822
22.214	54.823
22.244	54.826
22.274	54.828
22.304	54.829
22.334	54.831
22.364	54.831
22.395	54.833
22.425	54.833
22.455	54.832
22.485	54.833
22.515	54.835
22.546	54.837
22.576	54.837
22.606	54.838
22.636	54.838
22.666	54.838
22.697	54.839
22.727	54.840
22.757	54.842
22.787	54.844
22.817	54.845
22.847	54.845
22.878	54.846
22.908	54.846
22.938	54.849
22.968	54.851
22.998	54.852
23.029	54.854
23.059	54.854
23.089	54.856
23.119	54.858
23.149	54.859
23.179	54.860
23.210	54.861
23.240	54.861
23.270	54.862
23.300	54.862
23.330	54.864
23.361	54.866
23.391	54.867
23.421	54.871
23.451	54.873
23.481	54.876
23.512	54.878
23.542	54.878
23.572	54.882
23.602	54.883
23.632	54.883
23.663	54.885
23.693	54.885
23.723	54.885
23.753	54.886
23.783	54.888
23.813	54.889
23.844	54.890
23.874	54.891
23.904	54.895
23.934	54.897
23.964	54.899
23.995	54.904
24.025	54.905
24.055	54.905
24.085	54.905
24.115	54.906
24.145	54.906
24.176	54.907
24.206	54.907
24.236	54.907
24.266	54.907
24.296	54.911
24.327	54.911
24.357	54.911
24.387	54.912
24.417	54.949
24.447	54.970
24.478	54.972
24.508	54.973
24.538	54.975
24.568	54.976
24.598	54.977
24.628	54.978
24.659	54.980
24.689	54.980
24.719	54.981
24.749	54.981
24.779	54.983
24.810	54.983
24.840	54.983
24.870	54.984
24.900	54.985
24.930	54.985
24.961	54.988
24.991	54.994
25.021	54.999
25.051	55.001
25.081	55.001
25.112	55.002
25.142	55.003
25.172	55.006
25.202	55.007
25.232	55.010
25.263	55.012
25.293	55.016
25.323	55.018
25.353	55.026
25.383	55.029
25.414	55.031
25.444	55.039
25.474	55.047
25.504	55.047
25.534	55.048
25.565	55.051
25.595	55.052
25.625	55.055
25.655	55.057
25.685	55.060
25.715	55.063
25.746	55.066
25.776	55.068
25.806	55.069
25.836	55.072
25.866	55.074
25.897	55.076
25.927	55.077
25.957	55.081
25.987	55.083
26.017	55.084
26.047	55.084
26.078	55.085
26.108	55.086
26.138	55.087
26.168	55.089
26.198	55.089
26.229	55.092
26.259	55.093
26.289	55.092
26.319	55.094
26.349	55.097
26.379	55.101
26.410	55.104
26.440	55.105
26.470	55.108
26.500	55.108
26.530	55.112
26.561	55.114
26.591	55.115
26.621	55.117
26.651	55.118
26.681	55.120
26.712	55.121
26.742	55.122
26.772	55.122
26.802	55.122
26.832	55.122
26.862	55.123
26.893	55.124
26.923	55.125
26.953	55.125
26.983	55.125
27.013	55.128
27.044	55.130
27.074	55.134
27.104	55.136
27.134	55.140
27.164	55.141
27.195	55.145
27.225	55.147
27.255	55.148
27.285	55.152
27.315	55.152
27.346	55.152
27.376	55.155
27.406	55.156
27.436	55.157
27.466	55.157
27.496	55.159
27.527	55.159
27.557	55.161
27.587	55.162
27.617	55.165
27.647	55.166
27.678	55.166
27.708	55.167
27.738	55.167
27.768	55.167
27.798	55.168
27.829	55.168
27.859	55.168
27.889	55.169
27.919	55.170
27.949	55.171
27.980	55.171
28.010	55.172
28.040	55.177
28.070	55.181
28.100	55.181
28.131	55.181
28.161	55.181
28.191	55.183
28.221	55.184
28.251	55.185
28.282	55.185
28.312	55.185
28.342	55.185
28.372	55.186
28.402	55.186
28.432	55.186
28.463	55.187
28.493	55.188
28.523	55.188
28.553	55.191
28.583	55.191
28.614	55.191
28.644	55.193
28.674	55.196
28.704	55.199
28.734	55.201
28.765	55.202
28.795	55.203
28.825	55.205
28.855	55.206
28.885	55.207
28.916	55.210
28.946	55.212
28.976	55.212
29.006	55.212
29.036	55.213
29.067	55.220
29.097	55.219
29.127	55.225
29.157	55.227
29.187	55.228
29.217	55.229
29.248	55.230
29.278	55.232
29.308	55.235
29.338	55.235
29.368	55.236
29.399	55.245
29.429	55.247
29.459	55.248
29.489	55.246
29.519	55.245
29.549	55.244
29.580	55.246
29.610	55.246
29.640	55.248
29.670	55.248
29.700	55.248
29.731	55.249
29.761	55.249
29.791	55.249
29.821	55.249
29.851	55.249
29.882	55.248
29.912	55.250
29.942	55.253
29.972	55.254
30.002	55.253
30.032	55.253
30.063	55.252
30.093	55.251
30.123	55.250
30.153	55.247
30.183	55.242
30.214	54.973
30.244	55.209
30.274	55.210
30.304	55.212
30.334	55.215
30.365	55.216
30.395	55.217
30.425	55.217
30.455	55.218
30.485	55.218
30.515	55.218
30.546	55.218
30.576	55.219
30.606	55.221
30.636	55.221
30.666	55.222
30.697	55.221
30.727	55.218
30.757	55.213
30.787	55.163
30.817	55.147
30.848	55.145
30.878	55.141
30.908	55.155
30.938	55.159
30.968	55.161
30.998	55.163
31.029	55.163
31.059	55.165
31.089	55.166
31.119	55.168
31.149	55.169
31.180	55.170
31.210	55.170
31.240	55.170
31.270	55.170
31.300	55.170
31.331	55.172
31.361	55.173
31.391	55.172
31.421	55.167
31.451	55.177
31.482	55.189
31.512	55.190
31.542	55.192
31.572	55.193
31.602	55.195
31.633	55.196
31.663	55.197
31.693	55.198
31.723	55.198
31.753	55.199
31.784	55.200
31.814	55.201
31.844	55.202
31.874	55.203
31.904	55.205
31.935	55.205
31.965	55.207
31.995	55.207
32.025	55.206
32.055	55.207
32.086	55.208
32.116	55.210
32.146	55.211
32.176	55.211
32.206	55.211
32.237	55.212
32.267	55.215
32.297	55.215
32.327	55.217
32.357	55.218
32.387	55.219
32.418	55.221
32.448	55.224
32.478	55.225
32.508	55.226
32.538	55.226
32.569	55.226
32.599	55.226
32.629	55.234
32.659	55.236
32.689	55.236
32.720	55.236
32.750	55.237
32.780	55.238
32.810	55.238
32.840	55.243
32.870	55.245
32.901	55.245
32.931	55.245
32.961	55.246
32.991	55.246
33.021	55.249
33.052	55.253
33.082	55.253
33.112	55.255
33.142	55.256
33.172	55.258
33.202	55.258
33.233	55.258
33.263	55.259
33.293	55.260
33.323	55.260
33.353	55.261
33.384	55.262
33.414	55.263
33.444	55.263
33.474	55.263
33.504	55.265
33.535	55.265
33.565	55.267
33.595	55.267
33.625	55.269
33.655	55.269
33.685	55.271
33.716	55.272
33.746	55.273
33.776	55.274
33.806	55.274
33.836	55.274
33.867	55.274
33.897	55.274
33.927	55.275
33.957	55.275
33.987	55.275
34.017	55.275
34.048	55.275
34.078	55.274
34.108	55.275
34.138	55.275
34.168	55.275
34.199	55.276
34.229	55.276
34.259	55.278
34.289	55.281
34.319	55.282
34.350	55.283
34.380	55.283
34.410	55.285
34.440	55.288
34.470	55.292
34.500	55.300
34.531	55.301
34.561	55.301
34.591	55.301
34.621	55.301
34.651	55.302
34.682	55.304
34.712	55.307
34.742	55.308
34.772	55.309
34.802	55.309
34.833	55.313
34.863	55.314
34.893	55.315
34.923	55.320
34.953	55.321
34.983	55.322
35.014	55.322
35.044	55.321
35.074	55.322
35.104	55.324
35.134	55.326
35.165	55.327
35.195	55.327
35.225	55.327
35.255	55.328
35.285	55.328
35.315	55.327
35.346	55.328
35.376	55.328
35.406	55.328
35.436	55.328
35.466	55.329
35.497	55.330
35.527	55.332
35.557	55.334
35.587	55.334
35.617	55.335
35.648	55.336
35.678	55.337
35.708	55.337
35.738	55.338
35.768	55.339
35.798	55.340
35.829	55.341
35.859	55.344
35.889	55.345
35.919	55.348
35.949	55.350
35.980	55.351
36.010	55.352
36.040	55.352
36.070	55.352
36.100	55.352
36.130	55.354
36.161	55.354
36.191	55.355
36.221	55.356
36.251	55.357
36.281	55.361
36.312	55.362
36.342	55.363
36.372	55.366
36.402	55.367
36.432	55.367
36.463	55.367
36.493	55.367
36.523	55.370
36.553	55.370
36.583	55.370
36.614	55.370
36.644	55.370
36.674	55.371
36.704	55.371
36.734	55.370
36.765	55.371
36.795	55.371
36.825	55.371
36.855	55.371
36.885	55.376
36.916	55.378
36.946	55.378
36.976	55.377
37.006	55.378
37.036	55.377
37.067	55.380
37.097	55.380
37.127	55.380
37.157	55.379
37.187	55.373
37.218	54.660
37.248	54.664
37.278	54.702
37.308	54.706
37.338	54.709
37.368	54.711
37.399	54.712
37.429	54.712
37.459	54.714
37.489	54.715
37.519	54.716
37.550	54.718
37.580	54.719
37.610	54.719
37.640	54.719
37.670	54.720
37.700	54.722
37.731	54.724
37.761	54.723
37.791	54.724
37.821	54.723
37.851	54.725
37.882	54.731
37.912	54.732
37.942	54.731
37.972	54.729
38.002	54.736
38.033	54.739
38.063	54.740
38.093	54.743
38.123	54.745
38.153	54.747
38.183	54.746
38.214	54.747
38.244	54.751
38.274	54.746
38.304	54.756
38.334	54.757
38.365	54.758
38.395	54.759
38.425	54.770
38.455	54.772
38.485	54.774
38.516	54.774
38.546	54.776
38.576	54.777
38.606	54.777
38.636	54.778
38.667	54.778
38.697	54.779
38.727	54.779
38.757	54.779
38.787	54.783
38.818	54.785
38.848	54.786
38.878	54.786
38.908	54.786
38.938	54.786
38.968	54.786
38.999	54.787
39.029	54.787
39.059	54.788
39.089	54.786
39.119	54.781
39.150	54.800
39.180	54.802
39.210	54.804
39.240	54.808
39.270	54.810
39.301	54.811
39.331	54.813
39.361	54.814
39.391	54.814
39.421	54.815
39.452	54.819
39.482	54.820
39.512	54.821
39.542	54.822
39.572	54.822
39.603	54.823
39.633	54.824
39.663	54.825
39.693	54.825
39.723	54.827
39.753	54.828
39.784	54.828
39.814	54.828
39.844	54.830
39.874	54.831
39.904	54.832
39.935	54.833
39.965	54.833
39.995	54.833
40.025	54.835
40.055	54.836
40.085	54.839
40.116	54.844
40.146	54.847
40.176	54.848
40.206	54.848
40.236	54.848
40.267	54.848
40.297	54.848
40.327	54.848
40.357	54.849
40.387	54.850
40.418	54.850
40.448	54.850
40.478	54.850
40.508	54.846
40.538	54.850
40.568	54.853
40.599	54.854
40.629	54.856
40.659	54.856
40.689	54.857
40.719	54.858
40.750	54.859
40.780	54.859
40.810	54.864
40.840	54.867
40.870	54.892
40.901	54.895
40.931	54.897
40.961	54.899
40.991	54.902
41.021	54.903
41.051	54.903
41.082	54.905
41.112	54.908
41.142	54.909
41.172	54.911
41.202	54.913
41.233	54.914
41.263	54.914
41.293	54.925
41.323	54.926
41.353	54.926
41.383	54.926
41.414	54.925
41.444	54.924
41.474	54.919
41.504	54.925
41.534	54.931
41.565	54.932
41.595	54.931
41.625	54.933
41.655	54.934
41.685	54.936
41.715	54.931
41.746	54.094
41.776	54.096
41.806	54.099
41.836	54.101
41.866	54.104
41.897	54.106
41.927	54.107
41.957	54.108
41.987	54.110
42.017	54.111
42.048	54.113
42.078	54.327
42.108	54.394
42.138	54.406
42.168	54.498
42.198	54.793
42.229	54.799
42.259	54.803
42.289	54.806
42.319	54.809
42.349	54.811
42.380	54.811
42.410	54.812
42.440	54.813
42.470	54.814
42.500	54.815
42.531	54.819
42.561	54.824
42.591	54.827
42.621	54.828
42.651	54.829
42.682	54.830
42.712	54.830
42.742	54.832
42.772	54.839
42.802	54.841
42.832	54.842
42.863	54.842
42.893	54.843
42.923	54.843
42.953	54.844
42.983	54.844
43.014	54.846
43.044	54.846
43.074	54.847
43.104	54.850
43.134	54.851
43.165	54.852
43.195	54.854
43.225	54.855
43.255	54.856
43.285	54.856
43.315	54.857
43.346	54.857
43.376	54.857
43.406	54.857
43.436	54.857
43.466	54.856
43.497	54.861
43.527	54.861
43.557	54.862
43.587	54.864
43.617	54.865
43.648	54.866
43.678	54.867
43.708	54.869
